Data from FLMT021711__19__18-15-39-187.txt Node

Date: Tue Nov 05 18:15:39 CET 2024
User: Etudiants TP
Spectrometer: FLMT02171
Trigger mode: 0
Integration Time (sec): 1,000000E-1
Scans to average: 5
Electric dark correction enabled: true
Nonlinearity correction enabled: false
Boxcar width: 15
XAxis mode: Wavelengths
Number of Pixels in Spectrum: 3648
>>>>>Begin Spectral Data<<<<<
194,658	-71,21
194,923	-69,1
195,188	-62,22
195,453	-62,26
195,717	-55,13
195,982	-53,62
196,247	-50,94
196,512	-53,97
196,777	-51,94
197,042	-49,78
197,307	-49,22
197,572	-45,03
197,837	-44,31
198,101	-41,91
198,366	-39,42
198,631	-38,5
198,896	-30,71
199,161	-22,6
199,425	-13,99
199,69	-4,24
199,955	-5,96
200,22	-9,31
200,484	-9,07
200,749	-8,39
201,014	-7,4
201,278	-7,36
201,543	-6,37
201,807	-7,02
202,072	-4,76
202,337	-5,69
202,601	-7,5
202,866	-7,56
203,13	-6,44
203,395	-9,79
203,659	-9,51
203,924	-11,97
204,189	-11,93
204,453	-11,14
204,717	-8,09
204,982	-7,96
205,246	-7,14
205,511	-5,43
205,775	-6,3
206,04	-1,06
206,304	-0,28
206,568	2,57
206,833	4,27
207,097	4,24
207,361	6,3
207,626	11,12
207,89	12,63
208,154	15,21
208,419	16,23
208,683	15,76
208,947	17,58
209,211	17,65
209,476	17,3
209,74	17,53
210,004	18,15
210,268	18,4
210,532	21,58
210,796	23,05
211,061	22,63
211,325	23,32
211,589	22,53
211,853	23,82
212,117	24,25
212,381	26,48
212,645	27,17
212,909	27,59
213,173	26,52
213,437	28,15
213,701	28,57
213,965	29,93
214,229	24,27
214,493	23,75
214,757	22,34
215,021	21,09
215,285	25,59
215,549	26,85
215,813	22,61
216,077	20,18
216,34	21,91
216,604	22,85
216,868	23,45
217,132	23,9
217,396	21,79
217,659	22,66
217,923	17,45
218,187	17,69
218,451	17,22
218,714	13,68
218,978	13,65
219,242	16,87
219,505	18,16
219,769	20,76
220,033	21,13
220,296	22,54
220,56	22,64
220,824	19,32
221,087	18,8
221,351	18,77
221,614	17,13
221,878	18,3
222,142	15,47
222,405	16,12
222,669	18,64
222,932	13,49
223,196	12,39
223,459	9,65
223,722	12,04
223,986	11,6
224,249	12,07
224,513	11,37
224,776	10,08
225,04	10,22
225,303	9,19
225,566	9,9
225,83	11,23
226,093	15,38
226,356	12,7
226,62	11,41
226,883	12,66
227,146	13,92
227,409	11,78
227,673	9,19
227,936	8,33
228,199	8,16
228,462	5,18
228,725	3,59
228,989	3,19
229,252	5,75
229,515	10,37
229,778	8,76
230,041	7,38
230,304	6,6
230,567	7,2
230,83	4,69
231,093	8,57
231,356	8,04
231,619	14,47
231,882	12,14
232,145	14,63
232,408	12,97
232,671	12,09
232,934	11,41
233,197	9
233,46	8,36
233,723	8,8
233,986	8,33
234,249	6,56
234,512	9
234,775	12,78
235,037	13,83
235,3	13,21
235,563	12,88
235,826	13,99
236,089	16,67
236,351	16,09
236,614	19,26
236,877	20,41
237,14	23,26
237,402	22,42
237,665	14,98
237,928	15,33
238,19	12,89
238,453	15,81
238,716	15,31
238,978	14,79
239,241	12,37
239,503	15,14
239,766	9,36
240,029	6,98
240,291	9,2
240,554	9,95
240,816	9,12
241,079	9,87
241,341	9,99
241,604	8,17
241,866	5,59
242,129	6,93
242,391	8,31
242,653	6,76
242,916	6,81
243,178	5,33
243,441	7,27
243,703	7,84
243,965	6,13
244,228	6,44
244,49	6,72
244,752	7,06
245,015	7,08
245,277	10,17
245,539	8,74
245,801	10,82
246,064	10,35
246,326	10,66
246,588	10,51
246,85	12,75
247,112	12,49
247,374	14,85
247,637	15,98
247,899	15,74
248,161	16,29
248,423	11,69
248,685	11,43
248,947	10,85
249,209	10,58
249,471	12,89
249,733	13,68
249,995	12,32
250,257	10,63
250,519	8,28
250,781	11,73
251,043	8,39
251,305	10,18
251,567	11,43
251,829	10,34
252,091	9,85
252,353	4,92
252,615	5,46
252,876	2,36
253,138	-0,28
253,4	-5,17
253,662	-4,38
253,924	-1,58
254,185	-0,55
254,447	-0,85
254,709	-1,44
254,971	-1,04
255,232	0,71
255,494	-1,29
255,756	-3,23
256,017	-2,06
256,279	-0,48
256,541	-0,07
256,802	-0,22
257,064	1,63
257,326	0,99
257,587	1,64
257,849	4,17
258,11	7,1
258,372	7,67
258,633	10,59
258,895	9,75
259,156	8,7
259,418	7,12
259,679	2,03
259,941	0,66
260,202	4,01
260,464	6,46
260,725	4,49
260,987	4,55
261,248	4,77
261,509	5,05
261,771	3,93
262,032	5,96
262,293	5,48
262,555	6,04
262,816	3,88
263,077	2
263,338	0,31
263,6	1,22
263,861	1,7
264,122	0,58
264,383	2,63
264,645	2,93
264,906	2,48
265,167	1,67
265,428	0,24
265,689	1,01
265,95	-2,14
266,211	0,45
266,473	-0,01
266,734	-3,87
266,995	-7,42
267,256	-5,92
267,517	-3
267,778	0
268,039	1,47
268,3	0,31
268,561	-1,51
268,822	1,51
269,083	-1,1
269,344	-2,59
269,604	-3,52
269,865	-3,51
270,126	-7,96
270,387	-6,59
270,648	-5,84
270,909	-5,08
271,17	-5,7
271,43	-8,64
271,691	-11,63
271,952	-12,64
272,213	-10,05
272,473	-13,16
272,734	-10,02
272,995	-8,05
273,256	-6,66
273,516	-2,15
273,777	-5,37
274,038	-2,42
274,298	-5,56
274,559	-5,85
274,82	-1,38
275,08	2,32
275,341	3,87
275,601	1,87
275,862	-0,1
276,122	-0,29
276,383	0,18
276,643	1,26
276,904	0,94
277,164	6,43
277,425	6,53
277,685	12,23
277,946	14,3
278,206	16,24
278,467	16,92
278,727	18,58
278,987	17,54
279,248	17,97
279,508	21,33
279,768	24,61
280,029	26,09
280,289	22,68
280,549	21,36
280,81	19,9
281,07	18,55
281,33	20,24
281,59	18,33
281,851	21,27
282,111	19,5
282,371	19,1
282,631	21,26
282,891	19,08
283,151	17,34
283,412	14,39
283,672	13,83
283,932	14,55
284,192	17,09
284,452	13,74
284,712	11,94
284,972	11,26
285,232	8,3
285,492	12,35
285,752	8,31
286,012	13,43
286,272	15,36
286,532	13,25
286,792	11,83
287,052	13,66
287,312	13,32
287,571	11,58
287,831	10,66
288,091	7,65
288,351	7,3
288,611	11,83
288,871	10,66
289,13	9,45
289,39	5,12
289,65	5,84
289,91	3,37
290,17	6,59
290,429	8,14
290,689	4,31
290,949	1,89
291,208	2,42
291,468	7,03
291,728	8,19
291,987	10,68
292,247	8,27
292,506	11,07
292,766	14,24
293,026	12,11
293,285	12,27
293,545	14,16
293,804	14,25
294,064	9,94
294,323	6,76
294,583	8,53
294,842	8,1
295,102	8,18
295,361	8,01
295,621	8,63
295,88	9,32
296,139	9,27
296,399	10,63
296,658	5,1
296,917	5,35
297,177	2,29
297,436	4,09
297,695	2,36
297,955	4,14
298,214	1,61
298,473	3,69
298,732	8
298,992	11,5
299,251	11,4
299,51	7,05
299,769	6,7
300,028	5,91
300,287	5,42
300,547	5,27
300,806	2,76
301,065	7,97
301,324	10,2
301,583	6,39
301,842	3,23
302,101	1,47
302,36	1,57
302,619	0,57
302,878	1,64
303,137	-0,59
303,396	1,82
303,655	2,42
303,914	0,53
304,173	0,93
304,432	0,69
304,691	4,35
304,95	1,89
305,208	8,35
305,467	8,26
305,726	7,59
305,985	8,13
306,244	10,57
306,503	10,48
306,761	7,55
307,02	4,72
307,279	5,15
307,537	5,94
307,796	4,22
308,055	2,22
308,314	3,81
308,572	2,12
308,831	4,27
309,09	2,91
309,348	3,32
309,607	2,68
309,865	7,71
310,124	6,55
310,382	7,98
310,641	8,34
310,9	6,62
311,158	8,24
311,417	7,4
311,675	8,37
311,933	8,99
312,192	10,26
312,45	9,61
312,709	9,65
312,967	10,49
313,226	9,96
313,484	9,05
313,742	8,18
314,001	5,66
314,259	2,9
314,517	2,59
314,776	5,5
315,034	8,31
315,292	5,77
315,55	3,83
315,809	2,97
316,067	3,12
316,325	1,65
316,583	3,15
316,841	0,87
317,1	-1,84
317,358	-5,4
317,616	-6,13
317,874	-8,09
318,132	-8,31
318,39	-8,99
318,648	-9,41
318,906	-9,31
319,164	-10,58
319,422	-11,34
319,68	-13,37
319,938	-12,22
320,196	-12,62
320,454	-10,45
320,712	-11,31
320,97	-12,48
321,228	-15,66
321,486	-13,8
321,744	-13,03
322,002	-9,95
322,26	-10,14
322,517	-11,73
322,775	-14,79
323,033	-16,64
323,291	-14,15
323,549	-11,22
323,806	-9,91
324,064	-9,04
324,322	-7,27
324,58	-8,48
324,837	-5,95
325,095	-7,28
325,353	-5,53
325,61	-2,93
325,868	-3,51
326,126	-0,34
326,383	-0,27
326,641	-1,12
326,898	1,36
327,156	2,26
327,413	3,23
327,671	4,57
327,928	6,34
328,186	7,3
328,443	5,74
328,701	9,45
328,958	10,8
329,216	12,28
329,473	11,1
329,731	11
329,988	10,97
330,245	12,83
330,503	14,86
330,76	14,65
331,017	17,69
331,275	14,88
331,532	13,47
331,789	12,39
332,047	12,53
332,304	9,95
332,561	10,21
332,818	7,81
333,076	9,62
333,333	10,91
333,59	10,64
333,847	11,34
334,104	10,6
334,361	10,35
334,618	9,92
334,876	7,11
335,133	7,15
335,39	5,12
335,647	6,25
335,904	2,03
336,161	0,24
336,418	1,27
336,675	-3,2
336,932	-0,93
337,189	-2,29
337,446	-1,83
337,703	-1,97
337,96	-7,14
338,216	-6,8
338,473	-9,99
338,73	-8,65
338,987	-9,52
339,244	-6,27
339,501	-8,3
339,757	-6,25
340,014	-6,19
340,271	-5,24
340,528	-4,15
340,785	0,87
341,041	0,76
341,298	-1,56
341,555	-1,89
341,811	-0,91
342,068	-4,43
342,325	-4,25
342,581	-2,14
342,838	-1,59
343,094	-1,93
343,351	-2,31
343,608	-4,86
343,864	-1,71
344,121	-0,17
344,377	-1,74
344,634	-1,32
344,89	-2,97
345,147	-4,06
345,403	-5,24
345,66	-4,92
345,916	-2,43
346,172	-3,69
346,429	-4
346,685	-6,45
346,942	-7,66
347,198	-11,56
347,454	-10,29
347,711	-10,23
347,967	-13,13
348,223	-12,31
348,48	-13,27
348,736	-10,94
348,992	-9,9
349,248	-8,36
349,504	-7,94
349,761	-8,27
350,017	-8,01
350,273	-7,31
350,529	-8,01
350,785	-7,77
351,041	-8,42
351,297	-7,58
351,554	-9,57
351,81	-11,57
352,066	-13,86
352,322	-14,24
352,578	-13,68
352,834	-13,85
353,09	-11,86
353,346	-10,8
353,602	-12,59
353,858	-14,28
354,114	-15,51
354,369	-13,51
354,625	-10,62
354,881	-10,97
355,137	-7,45
355,393	-7,26
355,649	-7,41
355,905	-6,38
356,16	-6,48
356,416	-5,44
356,672	-12,78
356,928	-13,73
357,183	-13,18
357,439	-14,4
357,695	-15,33
357,951	-10,01
358,206	-11,9
358,462	-13,11
358,718	-15,26
358,973	-14,28
359,229	-13,13
359,484	-11,09
359,74	-8,98
359,996	-8,63
360,251	-5,17
360,507	-6,53
360,762	-6,1
361,018	-3,77
361,273	-5,46
361,529	-2,82
361,784	-0,46
362,04	1,56
362,295	1,22
362,55	2,3
362,806	4,26
363,061	4,9
363,316	6,03
363,572	6,63
363,827	9,25
364,082	6,61
364,338	6,88
364,593	7,65
364,848	8,8
365,104	7,34
365,359	10,89
365,614	9,71
365,869	6,42
366,124	7,39
366,38	6,34
366,635	8,87
366,89	10,52
367,145	9,87
367,4	13,26
367,655	13,68
367,91	14,41
368,165	12,02
368,42	8,8
368,675	9
368,93	8,42
369,185	5,75
369,44	4,71
369,695	5,9
369,95	3,65
370,205	1,62
370,46	-0,5
370,715	-1,25
370,97	-0,88
371,225	-0,43
371,48	0,68
371,734	0,1
371,989	1,9
372,244	1,44
372,499	4,9
372,754	4,05
373,008	1
373,263	-3,68
373,518	-0,44
373,773	-1,65
374,027	-3,18
374,282	0,25
374,537	1,29
374,791	2,94
375,046	0,99
375,301	-0,76
375,555	-1,99
375,81	-0,3
376,064	1,26
376,319	6,1
376,573	5,35
376,828	1,77
377,082	7,03
377,337	5,83
377,591	2,92
377,846	4,97
378,1	8,1
378,355	7,18
378,609	5,69
378,863	1,97
379,118	2,62
379,372	0,57
379,627	-1,58
379,881	-3,7
380,135	-4,03
380,389	-5,1
380,644	-4,67
380,898	-2,63
381,152	-1,29
381,407	-1,06
381,661	1,27
381,915	3,02
382,169	2,4
382,423	-0,19
382,677	-4,3
382,932	-3,03
383,186	-2,24
383,44	-1,85
383,694	0,58
383,948	-2,6
384,202	-3,35
384,456	-0,95
384,71	1,42
384,964	-1,12
385,218	0,95
385,472	2,83
385,726	2,29
385,98	2,03
386,234	2,2
386,488	0,35
386,742	2,3
386,996	-0,33
387,249	1,14
387,503	3,38
387,757	5,43
388,011	6,78
388,265	6,3
388,518	7,31
388,772	9,02
389,026	10,25
389,28	6,19
389,533	5,23
389,787	7,13
390,041	5,26
390,295	5,9
390,548	5,99
390,802	9,6
391,055	7,3
391,309	6,19
391,563	3,54
391,816	5,18
392,07	2,25
392,323	2,47
392,577	3,14
392,83	5,03
393,084	10,32
393,337	13,52
393,591	13,78
393,844	13,53
394,098	18,38
394,351	22,86
394,604	24,75
394,858	26,92
395,111	27,57
395,364	25,46
395,618	27,74
395,871	24,84
396,124	24,04
396,378	22,66
396,631	22,79
396,884	19,92
397,137	20,97
397,391	22,39
397,644	19,37
397,897	20,74
398,15	22,51
398,403	26,35
398,657	24,37
398,91	24,33
399,163	26,05
399,416	26,52
399,669	25,18
399,922	26,39
400,175	30,02
400,428	37,64
400,681	46,61
400,934	54,14
401,187	66,27
401,44	78,25
401,693	85,75
401,946	88,54
402,199	87,68
402,452	89,03
402,704	86,83
402,957	84,87
403,21	87,91
403,463	86,58
403,716	89
403,969	90,03
404,221	89,92
404,474	92,84
404,727	97,18
404,98	99,48
405,232	99,83
405,485	101,27
405,738	102,41
405,99	102,76
406,243	101,75
406,496	103,87
406,748	104,5
407,001	103,52
407,253	102,35
407,506	102,76
407,759	103,86
408,011	95,97
408,264	88,4
408,516	79,68
408,769	64,75
409,021	51,23
409,274	39,68
409,526	32,96
409,778	25,74
410,031	25,02
410,283	21,84
410,536	26,87
410,788	25,05
411,04	22,6
411,293	23,34
411,545	22,51
411,797	21,42
412,049	20,94
412,302	21,07
412,554	21,14
412,806	19,58
413,058	16,36
413,311	17,86
413,563	17,06
413,815	16,01
414,067	14,79
414,319	12,73
414,571	13
414,823	10,22
415,075	10,28
415,328	11,55
415,58	14,14
415,832	16,31
416,084	16,63
416,336	14,47
416,588	19,36
416,84	17,04
417,091	20,36
417,343	17,49
417,595	19,71
417,847	21,56
418,099	23,05
418,351	20,83
418,603	25,01
418,855	27,02
419,106	27,47
419,358	27,42
419,61	28,32
419,862	29,91
420,114	26,84
420,365	25,66
420,617	24,7
420,869	23,51
421,12	21,51
421,372	22,33
421,624	22,6
421,875	21,62
422,127	19,03
422,379	18,92
422,63	21,73
422,882	20,38
423,133	19,62
423,385	19,12
423,636	19,84
423,888	22,62
424,139	25,67
424,391	21,87
424,642	20,54
424,894	17,05
425,145	16,55
425,396	13,73
425,648	14,74
425,899	12,39
426,151	13,69
426,402	11,52
426,653	11,4
426,905	10,98
427,156	9,02
427,407	8,22
427,658	6,35
427,91	4,24
428,161	3,25
428,412	6,85
428,663	8,49
428,914	10,09
429,166	10,39
429,417	9,43
429,668	8,93
429,919	7,58
430,17	6,9
430,421	8,13
430,672	12,9
430,923	14,17
431,174	16,88
431,425	33,88
431,676	56,56
431,927	83,45
432,178	122,76
432,429	163,63
432,68	193,92
432,931	221,16
433,182	241,03
433,433	251,14
433,683	260,88
433,934	263,88
434,185	264,93
434,436	263,07
434,687	263,64
434,937	267,19
435,188	266,31
435,439	266,27
435,69	268,19
435,94	267,55
436,191	266,95
436,442	266,36
436,692	264,31
436,943	261,25
437,194	261,06
437,444	263,52
437,695	266,27
437,945	267,98
438,196	266,14
438,447	262,46
438,697	260,76
438,948	255,24
439,198	234,68
439,449	205,5
439,699	176,43
439,949	139,06
440,2	98,15
440,45	68,18
440,701	42,14
440,951	22,96
441,201	10,52
441,452	1,63
441,702	-3,51
441,952	-4,33
442,203	-4,33
442,453	-7,47
442,703	-8,09
442,953	-7,3
443,204	-5,38
443,454	-8,53
443,704	-8,4
443,954	-13,16
444,204	-11,34
444,455	-9,33
444,705	-6,96
444,955	-6,76
445,205	-8,33
445,455	-10,45
445,705	-11,47
445,955	-11,93
446,205	-12,6
446,455	-11,47
446,705	-9,46
446,955	-7,65
447,205	-6,21
447,455	-5,64
447,705	-7,61
447,955	-8,01
448,205	-8,3
448,454	-9,21
448,704	-7,76
448,954	-10,37
449,204	-10,02
449,454	-10,62
449,704	-12,87
449,953	-13,44
450,203	-11,34
450,453	-12,74
450,703	-10,92
450,952	-12,89
451,202	-11,02
451,452	-11,57
451,701	-7,96
451,951	-6,45
452,201	-6,98
452,45	-8,35
452,7	-7,79
452,949	-8,34
453,199	-8,04
453,448	-6,89
453,698	-5,78
453,947	-6,37
454,197	-7,24
454,446	-8,54
454,696	-4,66
454,945	-4,54
455,195	-5,37
455,444	-4,05
455,693	-0,46
455,943	-0,77
456,192	1,64
456,442	1,64
456,691	3,26
456,94	2,24
457,189	1,69
457,439	5,21
457,688	6,36
457,937	6,25
458,186	5,83
458,436	4,93
458,685	6,94
458,934	5,98
459,183	5,93
459,432	8,87
459,681	9,36
459,93	8,33
460,179	8,02
460,429	6,76
460,678	9,78
460,927	13,62
461,176	13,22
461,425	12,07
461,674	14,84
461,923	15,37
462,172	15,34
462,42	12,39
462,669	16,39
462,918	15,93
463,167	15
463,416	11,58
463,665	12,3
463,914	12,72
464,162	10,6
464,411	11,28
464,66	12,63
464,909	11,21
465,158	10,83
465,406	10,75
465,655	11,96
465,904	14,53
466,152	15
466,401	14,11
466,65	16,4
466,898	15,26
467,147	10,69
467,395	9,01
467,644	10,67
467,893	11,34
468,141	11,07
468,39	7,85
468,638	4,58
468,887	3,23
469,135	3,59
469,384	2,97
469,632	3,33
469,88	2,63
470,129	4,71
470,377	-0,56
470,626	2,88
470,874	5,41
471,122	7,24
471,371	5,44
471,619	4,14
471,867	8,24
472,115	7,01
472,364	5,4
472,612	8,62
472,86	7,3
473,108	8,71
473,356	8
473,605	6,22
473,853	3,29
474,101	2,82
474,349	1,6
474,597	4,63
474,845	4,02
475,093	2,84
475,341	1,87
475,589	1,36
475,837	2,76
476,085	5,43
476,333	4,53
476,581	6,75
476,829	6,12
477,077	10,75
477,325	12,9
477,573	15,1
477,821	13,45
478,069	16,63
478,317	16,57
478,564	19,02
478,812	20,58
479,06	22,51
479,308	23,61
479,555	26,91
479,803	30,49
480,051	36,46
480,299	41,73
480,546	46,55
480,794	50,08
481,042	58,08
481,289	65,23
481,537	75,3
481,784	83,64
482,032	96,54
482,28	106,07
482,527	115,45
482,775	128,26
483,022	140,45
483,27	154,05
483,517	170,01
483,765	180,31
484,012	193,36
484,259	202,81
484,507	216,91
484,754	226,4
485,002	235,01
485,249	244,28
485,496	257,62
485,744	267,13
485,991	275,11
486,238	280,8
486,486	290,27
486,733	297,42
486,98	306,79
487,227	309,23
487,474	316,75
487,722	323,62
487,969	325,11
488,216	329,48
488,463	332,1
488,71	331,37
488,957	331,97
489,204	330,75
489,451	330,32
489,699	327,36
489,946	320,87
490,193	315,65
490,44	310,35
490,687	304,91
490,934	296,61
491,18	285,72
491,427	280,75
491,674	276,2
491,921	269,72
492,168	261,93
492,415	252,41
492,662	247,13
492,909	243,24
493,155	234,9
493,402	226,87
493,649	220,05
493,896	216,94
494,142	207,43
494,389	201,62
494,636	194,67
494,883	188,16
495,129	180,09
495,376	171,48
495,623	167,31
495,869	163,14
496,116	158,95
496,362	155,59
496,609	151,92
496,855	151,8
497,102	145,84
497,348	139,12
497,595	135,51
497,841	136,91
498,088	131,21
498,334	124,62
498,581	118,67
498,827	115,76
499,074	113,07
499,32	110,17
499,566	110,05
499,813	105,83
500,059	100,53
500,305	95,64
500,552	90,14
500,798	86,27
501,044	87
501,29	81,31
501,537	74,93
501,783	75,29
502,029	75,99
502,275	69,25
502,521	64,78
502,767	62,6
503,013	63,06
503,26	57,07
503,506	48,91
503,752	48,3
503,998	44,08
504,244	42,2
504,49	36,92
504,736	37,35
504,982	34,41
505,228	34,62
505,474	31,73
505,72	30,47
505,966	30,48
506,211	32,32
506,457	29,51
506,703	23,82
506,949	19,79
507,195	15,69
507,441	13,17
507,686	15,46
507,932	15,17
508,178	15,45
508,424	12,93
508,669	9,04
508,915	10
509,161	9,8
509,406	8,94
509,652	7,03
509,898	10,5
510,143	12,32
510,389	10,74
510,634	5,51
510,88	10,06
511,125	14,03
511,371	13,51
511,616	13,69
511,862	10,08
512,107	7,41
512,353	7,01
512,598	7,34
512,844	5,08
513,089	3,38
513,335	4,89
513,58	3,63
513,825	3,72
514,071	2,58
514,316	2,8
514,561	3,45
514,806	2,75
515,052	4,52
515,297	1,97
515,542	1,89
515,787	3,15
516,033	4,31
516,278	4,91
516,523	3,5
516,768	2,73
517,013	0,51
517,258	-0,44
517,503	-1,16
517,748	-1,8
517,993	-2,06
518,238	-2,6
518,483	-5,45
518,728	-5,62
518,973	-9,75
519,218	-10,05
519,463	-9,34
519,708	-9,68
519,953	-11,31
520,198	-10,42
520,443	-6,52
520,688	-3,34
520,933	-4,23
521,177	-4,33
521,422	-5,76
521,667	-2,59
521,912	-1,37
522,157	-5,25
522,401	-1,68
522,646	-1,97
522,891	0,7
523,135	1,88
523,38	1,91
523,625	1,17
523,869	2,59
524,114	4,4
524,358	3,98
524,603	4,01
524,848	2,3
525,092	2,13
525,337	3,69
525,581	6,17
525,826	10,05
526,07	10,74
526,315	11,94
526,559	13,27
526,803	11,09
527,048	15,31
527,292	15,46
527,537	14,88
527,781	14,14
528,025	10,83
528,269	11,57
528,514	12,87
528,758	11,8
529,002	12,16
529,247	16,42
529,491	16,45
529,735	23,52
529,979	23,86
530,223	27,99
530,467	25,5
530,712	26,34
530,956	25,96
531,2	29,76
531,444	29,68
531,688	32,54
531,932	34,88
532,176	38,39
532,42	42
532,664	45,99
532,908	47,62
533,152	49,43
533,396	52,94
533,64	57,2
533,884	58,98
534,128	64,47
534,371	73,99
534,615	83,86
534,859	92,7
535,103	101,79
535,347	111,43
535,59	122,81
535,834	132,53
536,078	148,48
536,322	168,81
536,565	191,06
536,809	211,43
537,053	240,45
537,296	271,74
537,54	309,63
537,784	353,06
538,027	405,92
538,271	457,22
538,514	511,2
538,758	565,13
539,001	617,27
539,245	670,17
539,488	720,94
539,732	771,91
539,975	819,76
540,219	867,33
540,462	912,27
540,706	958,35
540,949	999,43
541,192	1041,16
541,436	1090,11
541,679	1146,64
541,922	1211,33
542,166	1277,3
542,409	1357,75
542,652	1442,66
542,895	1527,61
543,139	1599,74
543,382	1665,01
543,625	1714,97
543,868	1758,15
544,111	1791,61
544,354	1815,26
544,598	1828,89
544,841	1833,08
545,084	1826,32
545,327	1808,37
545,57	1786,02
545,813	1759,78
546,056	1727,02
546,299	1694,17
546,542	1662,1
546,785	1629,06
547,028	1596,27
547,271	1559,71
547,514	1523,76
547,756	1486,03
547,999	1451,36
548,242	1416,62
548,485	1379,95
548,728	1346,21
548,971	1302,55
549,213	1254,48
549,456	1189,65
549,699	1118,43
549,942	1036,33
550,184	949,54
550,427	861,73
550,67	785,97
550,912	712,18
551,155	652,2
551,398	595,27
551,64	544,09
551,883	499,2
552,125	459,34
552,368	424,62
552,61	390,73
552,853	365,68
553,095	337,45
553,338	312,78
553,58	291,87
553,823	268,6
554,065	251,81
554,308	230,45
554,55	211,7
554,792	195,14
555,035	181,63
555,277	167,99
555,519	156,62
555,762	144,26
556,004	135,12
556,246	120,88
556,488	113,54
556,731	101,27
556,973	96,05
557,215	86,9
557,457	82,91
557,699	79,17
