Data from led6500K_USB4H112691__5__12-40-53-174.txt Node

Date: Tue Dec 17 12:40:53 CET 2024
User: Etudiants TP
Spectrometer: USB4H11269
Trigger mode: 4
Integration Time (sec): 1.000000E0
Scans to average: 1
Electric dark correction enabled: true
Nonlinearity correction enabled: false
Boxcar width: 0
XAxis mode: Wavelengths
Number of Pixels in Spectrum: 3648
>>>>>Begin Spectral Data<<<<<
286.377	-1639.23
286.631	-1639.23
286.884	-1639.23
287.138	-1661.76
287.391	-1682.24
287.644	-875.34
287.896	-594.76
288.149	724.13
288.401	492.71
288.653	-527.18
288.905	-490.32
289.157	820.38
289.409	380.07
289.661	-465.74
289.912	-791.37
290.163	574.63
290.414	752.8
290.665	-740.17
290.916	-652.11
291.166	562.34
291.417	1037.47
291.667	-633.68
291.917	-201.55
292.167	388.26
292.417	353.45
292.666	-793.42
292.916	-566.09
293.165	550.05
293.414	771.23
293.663	-949.06
293.912	-822.09
294.16	748.7
294.408	672.93
294.657	-752.46
294.905	-547.66
295.153	636.06
295.4	672.93
295.648	-867.14
295.895	-779.08
296.143	214.18
296.39	818.33
296.637	-637.77
296.884	-678.73
297.13	779.42
297.377	871.58
297.623	-605
297.869	-355.15
298.115	728.22
298.361	804
298.606	-838.47
298.852	-629.58
299.097	607.39
299.342	1127.58
299.587	-453.45
299.832	-656.2
300.077	693.41
300.322	525.47
300.566	-731.98
300.81	-523.09
301.054	558.24
301.298	785.57
301.542	-228.18
301.785	-424.78
302.029	955.55
302.272	715.94
302.515	-834.38
302.758	-639.82
303.001	787.61
303.244	666.78
303.486	-551.76
303.729	-936.78
303.971	945.31
304.213	734.37
304.455	-809.8
304.696	-291.66
304.938	281.77
305.179	734.37
305.421	-385.87
305.662	-445.26
305.903	418.98
306.143	423.08
306.384	-512.85
306.625	-482.13
306.865	459.94
307.105	294.05
307.345	-441.17
307.585	-539.47
307.825	132.26
308.064	781.47
308.304	-633.68
308.543	-875.34
308.782	595.11
309.021	916.64
309.26	-426.83
309.499	-566.09
309.737	967.84
309.976	801.95
310.214	-766.79
310.452	-697.16
310.69	1131.67
310.928	224.42
311.165	-637.77
311.403	-684.87
311.64	920.73
311.878	707.74
312.115	-527.18
312.351	-486.22
312.588	431.27
312.825	988.32
313.061	-822.09
313.298	9.39
313.534	306.34
313.77	836.77
314.006	-588.62
314.241	-645.96
314.477	695.46
314.713	1254.55
314.948	-607.05
315.183	220.33
315.418	967.84
315.653	597.15
315.888	-707.4
316.122	-459.6
316.357	396.45
316.591	840.86
316.825	-537.42
317.059	-625.48
317.293	1000.6
317.527	570.53
317.76	-654.16
317.994	-510.8
318.227	742.56
318.46	1197.21
318.693	-731.98
318.926	-527.18
319.159	107.69
319.391	533.67
319.624	-809.8
319.856	-605
320.088	824.48
320.321	658.59
320.552	-265.04
320.784	-629.58
321.016	779.42
321.247	-7
321.479	-365.39
321.71	-330.58
321.941	-123.73
322.172	1107.1
322.403	-695.11
322.633	-332.62
322.864	791.71
323.094	214.18
323.325	36.01
323.555	-713.55
323.785	275.62
324.014	316.58
324.244	-437.07
324.474	-387.92
324.703	986.27
324.933	902.3
325.162	-375.63
325.391	-797.51
325.62	46.25
325.848	830.62
326.077	-518.99
326.306	-412.5
326.534	699.55
326.762	992.41
326.99	-553.8
327.218	-316.24
327.446	674.98
327.674	60.59
327.901	-602.96
328.129	-682.83
328.356	834.72
328.583	249
328.81	-666.44
329.037	-432.97
329.264	511.14
329.491	937.12
329.717	-494.41
329.944	-635.72
330.17	392.36
330.396	119.98
330.622	-629.58
330.848	-344.91
331.074	474.28
331.299	1467.54
331.525	-629.58
331.75	-619.34
331.975	978.08
332.201	269.48
332.426	-887.62
332.65	-736.07
332.875	-62.29
333.1	478.37
333.324	-752.46
333.549	-764.75
333.773	271.53
333.997	588.96
334.221	-639.82
334.445	-615.24
334.668	566.43
334.892	1125.53
335.116	-340.82
335.339	-570.19
335.562	1.19
335.785	459.94
336.008	-402.26
336.231	-662.35
336.454	-174.93
336.676	978.08
336.899	-510.8
337.121	-279.38
337.343	66.73
337.566	636.06
337.788	-568.14
338.009	-688.97
338.231	111.78
338.453	521.38
338.674	3210.36
338.896	-441.17
339.117	-54.1
339.338	1027.23
339.559	-639.82
339.78	-596.81
340.001	99.5
340.222	879.77
340.442	-588.62
340.663	-191.31
340.883	705.7
341.103	396.45
341.323	-580.43
341.543	-336.72
341.763	838.81
341.983	308.39
342.202	-770.89
342.422	-711.5
342.641	1103
342.861	437.41
343.08	-119.64
343.299	-680.78
343.518	654.5
343.736	552.1
343.955	-637.77
344.174	-688.97
344.392	832.67
344.61	74.92
344.829	-727.88
345.047	-596.81
345.265	656.54
345.483	945.31
345.7	-605
345.918	-195.41
346.136	13.48
346.353	859.29
346.57	-701.26
346.788	-676.68
347.005	398.5
347.222	52.39
347.438	-72.53
347.655	-498.51
347.872	107.69
348.088	1111.19
348.305	-383.82
348.521	-574.28
348.737	193.7
348.953	1004.7
349.169	-152.4
349.385	-467.79
349.601	476.32
349.817	-23.38
350.032	-152.4
350.248	-365.39
350.463	1229.98
350.678	-248.66
350.893	-578.38
351.108	-697.16
351.323	5.29
351.538	795.81
351.753	-631.63
351.967	-588.62
352.182	887.97
352.396	230.57
352.61	-760.65
352.824	-543.57
353.038	660.64
353.252	820.38
353.466	-424.78
353.68	-625.48
353.894	435.36
354.107	156.84
354.32	-424.78
354.534	-547.66
354.747	709.79
354.96	-136.02
355.173	-361.3
355.386	-873.29
355.599	496.8
355.811	279.72
356.024	-707.4
356.236	-506.7
356.449	320.68
356.661	369.83
356.873	-742.22
357.085	-875.34
357.297	552.1
357.509	601.25
357.721	-596.81
357.933	-600.91
358.144	261.29
358.356	216.23
358.567	-314.19
358.778	-682.83
358.989	953.5
359.2	197.8
359.411	-465.74
359.622	-297.81
359.833	480.42
360.044	373.92
360.254	-539.47
360.465	-768.84
360.675	560.29
360.885	451.75
361.096	-764.75
361.306	-553.8
361.516	199.85
361.726	439.46
361.935	-826.18
362.145	-600.91
362.355	550.05
362.564	601.25
362.774	-811.85
362.983	-768.84
363.192	930.97
363.401	134.31
363.61	-744.27
363.819	-410.45
364.028	394.4
364.237	959.64
364.445	-531.28
364.654	-373.58
364.862	375.97
365.071	214.18
365.279	-498.51
365.487	-641.87
365.695	558.24
365.903	378.02
366.111	-762.7
366.319	-602.96
366.527	619.68
366.734	369.83
366.942	-488.27
367.149	-752.46
367.357	-506.7
367.564	1039.51
367.771	-531.28
367.978	-648.01
368.185	189.61
368.392	347.3
368.599	-269.14
368.806	-596.81
369.013	11.43
369.219	570.53
369.426	-891.72
369.632	-228.18
369.838	1137.82
370.044	615.59
370.251	-592.72
370.457	-551.76
370.663	844.96
370.868	464.04
371.074	-547.66
371.28	-711.5
371.485	-179.03
371.691	625.83
371.896	-621.39
372.102	-705.35
372.307	1111.19
372.512	857.25
372.717	-682.83
372.922	-162.64
373.127	58.54
373.332	515.23
373.537	-605
373.741	-570.19
373.946	502.95
374.151	312.49
374.355	-826.18
374.559	-471.89
374.764	193.7
374.968	-330.58
375.172	-652.11
375.376	-312.14
375.58	509.09
375.784	83.11
375.987	-713.55
376.191	-527.18
376.395	230.57
376.598	267.43
376.802	-695.11
377.005	-199.51
377.208	224.42
377.412	146.6
377.615	-858.95
377.818	-588.62
378.021	173.22
378.224	-80.72
378.426	-545.61
378.629	-848.71
378.832	730.27
379.034	666.78
379.237	-858.95
379.439	-797.51
379.642	760.99
379.844	670.88
380.046	-899.91
380.248	-801.61
380.45	-193.36
380.652	-111.44
380.854	-521.04
381.056	-602.96
381.258	263.33
381.459	500.9
381.661	-699.21
381.862	-357.2
382.064	-56.15
382.265	179.37
382.467	-633.68
382.668	-523.09
382.869	728.22
383.07	388.26
383.271	-465.74
383.472	-617.29
383.673	760.99
383.874	459.94
384.074	-480.08
384.275	-756.55
384.476	658.59
384.676	1201.3
384.876	-744.27
385.077	-670.54
385.277	683.17
385.477	859.29
385.677	-744.27
385.878	-555.85
386.078	351.4
386.278	345.25
386.477	-326.48
386.677	-242.51
386.877	513.19
387.077	689.31
387.276	-455.5
387.476	-465.74
387.675	386.21
387.875	994.46
388.074	-719.69
388.273	-580.43
388.472	840.86
388.671	-158.55
388.87	-684.87
389.069	-136.02
389.268	-142.16
389.467	21.67
389.666	-807.75
389.865	-269.14
390.063	509.09
390.262	765.09
390.461	-633.68
390.659	-682.83
390.857	754.85
391.056	640.16
391.254	-699.21
391.452	-609.1
391.65	758.94
391.849	478.37
392.047	-510.8
392.245	-273.23
392.442	265.38
392.64	509.09
392.838	-355.15
393.036	-523.09
393.233	281.77
393.431	259.24
393.629	-854.86
393.826	-531.28
394.023	287.91
394.221	-256.85
394.418	-482.13
394.615	-260.95
394.812	-76.63
395.01	656.54
395.207	-605
395.404	-707.4
395.601	971.93
395.797	396.45
395.994	-666.44
396.191	-574.28
396.388	382.12
396.584	582.82
396.781	-338.77
396.977	1.19
397.174	586.91
397.37	-35.67
397.567	-398.16
397.763	-707.4
397.959	304.29
398.155	345.25
398.352	-523.09
398.548	-228.18
398.744	650.4
398.94	373.92
399.136	-717.64
399.331	-301.9
399.527	369.83
399.723	550.05
399.919	-392.02
400.114	-609.1
400.31	238.76
400.505	478.37
400.701	-492.37
400.896	-605
401.092	175.27
401.287	443.56
401.482	-772.94
401.678	-430.93
401.873	593.06
402.068	683.17
402.263	-467.79
402.458	-537.42
402.653	160.94
402.848	529.57
403.043	-484.17
403.237	-766.79
403.432	97.45
403.627	-121.68
403.822	-785.23
404.016	-621.39
404.211	111.78
404.405	531.62
404.6	-222.03
404.794	-240.47
404.989	476.32
405.183	154.79
405.377	-269.14
405.571	-211.79
405.766	515.23
405.96	240.81
406.154	-461.65
406.348	-441.17
406.542	664.74
406.736	468.13
406.93	-723.79
407.124	-400.21
407.318	337.06
407.511	318.63
407.705	-248.66
407.899	-664.4
408.092	504.99
408.286	439.46
408.48	-774.99
408.673	-654.16
408.867	91.31
409.06	347.3
409.253	-392.02
409.447	-475.98
409.64	566.43
409.833	472.23
410.026	-445.26
410.22	-342.86
410.413	642.21
410.606	410.79
410.799	-787.27
410.992	-547.66
411.185	285.86
411.378	1041.56
411.571	-512.85
411.764	-467.79
411.956	599.2
412.149	353.45
412.342	-351.06
412.534	-383.82
412.727	617.63
412.92	507.04
413.112	-469.84
413.305	-265.04
413.497	783.52
413.69	672.93
413.882	-414.54
414.075	-217.94
414.267	459.94
414.459	205.99
414.652	-703.31
414.844	-525.13
415.036	488.61
415.228	767.13
415.42	-334.67
415.612	-568.14
415.804	797.85
415.997	521.38
416.188	-308.05
416.38	-367.44
416.572	140.46
416.764	605.35
416.956	-588.62
417.148	-518.99
417.34	263.33
417.531	-15.19
417.723	-570.19
417.915	-420.69
418.107	165.03
418.298	480.42
418.49	-482.13
418.681	-262.99
418.873	756.9
419.064	435.36
419.256	-473.93
419.447	-529.23
419.639	529.57
419.83	701.6
420.021	-332.62
420.213	-574.28
420.404	328.87
420.595	396.45
420.786	-324.43
420.978	-334.67
421.169	597.15
421.36	279.72
421.551	-527.18
421.742	-621.39
421.933	849.05
422.124	519.33
422.315	-367.44
422.506	-465.74
422.697	535.71
422.888	296.1
423.079	-142.16
423.27	-562
423.461	242.85
423.652	210.09
423.842	-572.24
424.033	-428.88
424.224	476.32
424.415	1012.89
424.605	-320.34
424.796	-473.93
424.987	580.77
425.177	421.03
425.368	-713.55
425.558	-641.87
425.749	263.33
425.939	246.95
426.13	-115.54
426.32	-342.86
426.511	208.04
426.701	144.55
426.892	-375.63
427.082	-488.27
427.272	122.02
427.463	382.12
427.653	-416.59
427.843	-277.33
428.034	900.25
428.224	437.41
428.414	-594.76
428.604	-314.19
428.795	476.32
428.985	609.44
429.175	-111.44
429.365	-254.8
429.555	418.98
429.745	345.25
429.935	-432.97
430.126	-248.66
430.316	689.31
430.506	660.64
430.696	-406.35
430.886	-187.22
431.076	517.28
431.266	363.69
431.456	-50
431.645	-408.4
431.835	308.39
432.025	468.13
432.215	-539.47
432.405	-242.51
432.595	451.75
432.785	396.45
432.975	-457.55
433.164	-578.38
433.354	189.61
433.544	496.8
433.734	-551.76
433.923	-219.99
434.113	324.77
434.303	328.87
434.493	-258.9
434.682	-424.78
434.872	552.1
435.062	-15.19
435.251	-435.02
435.441	-392.02
435.631	859.29
435.82	292.01
436.01	-594.76
436.2	-379.73
436.389	249
436.579	779.42
436.768	-127.83
436.958	-103.25
437.147	347.3
437.337	664.74
437.527	-260.95
437.716	-465.74
437.906	705.7
438.095	253.09
438.285	-422.73
438.474	-308.05
438.664	660.64
438.853	541.86
439.043	-213.84
439.232	-596.81
439.422	427.17
439.611	582.82
439.8	-379.73
439.99	-97.11
440.179	527.52
440.369	861.34
440.558	-617.29
440.748	-424.78
440.937	189.61
441.126	5.29
441.316	-129.88
441.505	-447.31
441.695	642.21
441.884	1078.43
442.073	-260.95
442.263	-424.78
442.452	414.88
442.642	564.39
442.831	-381.78
443.02	-101.2
443.21	984.22
443.399	1291.41
443.588	-332.62
443.778	-242.51
443.967	1012.89
444.156	621.73
444.346	-447.31
444.535	-367.44
444.725	1019.04
444.914	558.24
445.103	-406.35
445.293	-176.98
445.482	1123.48
445.671	611.49
445.861	-273.23
446.05	9.39
446.239	783.52
446.429	361.64
446.618	-400.21
446.807	13.48
446.997	742.56
447.186	777.37
447.376	-170.83
447.565	25.77
447.754	1012.89
447.944	1043.61
448.133	-203.6
448.322	-301.9
448.512	523.43
448.701	1172.63
448.891	-144.21
449.08	-64.34
449.269	148.65
449.459	443.56
449.648	-236.37
449.838	-316.24
450.027	492.71
450.217	259.24
450.406	-346.96
450.595	40.11
450.785	918.68
450.974	847.01
451.164	-260.95
451.353	-129.88
451.543	822.43
451.732	1105.05
451.922	-144.21
452.111	-172.88
452.301	504.99
452.49	320.68
452.68	-340.82
452.869	287.91
453.059	468.13
453.249	988.32
453.438	-471.89
453.628	-47.96
453.817	715.94
454.007	607.39
454.197	-486.22
454.386	-158.55
454.576	1070.23
454.765	1016.99
454.955	-125.78
455.145	-191.31
455.334	672.93
455.524	480.42
455.714	-19.29
455.904	-267.09
456.093	1369.24
456.283	842.91
456.473	-265.04
456.663	-326.48
456.852	804
457.042	754.85
457.232	-45.91
457.422	439.46
457.612	722.08
457.802	990.36
457.991	-357.2
458.181	-242.51
458.371	904.35
458.561	883.87
458.751	-252.75
458.941	-211.79
459.131	713.89
459.321	558.24
459.511	66.73
459.701	-76.63
459.891	910.49
460.081	318.63
460.271	-129.88
460.461	-306
460.651	1463.44
460.841	1215.64
461.032	-117.59
461.222	-222.03
461.412	615.59
461.602	1541.27
461.792	-377.68
461.983	-330.58
462.173	724.13
462.363	1422.48
462.554	-207.7
462.744	-191.31
462.934	992.41
463.125	799.9
463.315	-346.96
463.505	-58.2
463.696	926.88
463.886	459.94
464.077	-269.14
464.267	-342.86
464.458	1164.44
464.648	386.21
464.839	-54.1
465.03	-187.22
465.22	388.26
465.411	726.18
465.601	-191.31
465.792	-285.52
465.983	490.66
466.174	910.49
466.364	-514.89
466.555	-224.08
466.746	969.88
466.937	502.95
467.128	-248.66
467.319	-269.14
467.51	1008.8
467.701	1680.53
467.891	-140.12
468.082	-342.86
468.274	754.85
468.465	183.46
468.656	-19.29
468.847	-441.17
469.038	271.53
469.229	552.1
469.42	-68.44
469.612	-211.79
469.803	1010.84
469.994	857.25
470.185	-27.48
470.377	-383.82
470.568	648.35
470.76	789.66
470.951	-277.33
471.142	17.58
471.334	986.27
471.526	904.35
471.717	33.96
471.909	-396.11
472.1	627.87
472.292	820.38
472.484	-316.24
472.675	-236.37
472.867	734.37
473.059	1238.17
473.251	-80.72
473.443	-260.95
473.635	830.62
473.826	1002.65
474.018	-162.64
474.21	66.73
474.402	930.97
474.595	1287.32
474.787	-54.1
474.979	148.65
475.171	509.09
475.363	357.54
475.555	-342.86
475.748	-103.25
475.94	1123.48
476.132	699.55
476.325	-228.18
476.517	332.97
476.71	1614.99
476.902	631.97
477.095	-168.79
477.287	191.66
477.48	1123.48
477.673	1000.6
477.865	136.36
478.058	-103.25
478.251	1225.88
478.444	1402.01
478.636	117.93
478.829	-7
479.022	1092.76
479.215	1207.45
479.408	179.37
479.601	654.5
479.794	687.26
479.988	795.81
480.181	312.49
480.374	134.31
480.567	1129.63
480.76	1551.51
480.954	222.38
481.147	-78.68
481.341	920.73
481.534	1025.18
481.728	347.3
481.921	515.23
482.115	1424.53
482.308	1676.43
482.502	107.69
482.696	296.1
482.89	1991.82
483.084	1377.43
483.277	431.27
483.471	478.37
483.665	1535.12
483.859	2362.5
484.053	126.12
484.247	222.38
484.442	1320.09
484.636	1404.05
484.83	365.73
485.024	550.05
485.219	1285.27
485.413	1225.88
485.608	406.69
485.802	795.81
485.997	1834.13
486.191	1471.64
486.386	523.43
486.58	736.42
486.775	1729.68
486.97	1967.24
487.165	681.12
487.36	664.74
487.555	1543.32
487.75	1645.71
487.945	887.97
488.14	541.86
488.335	1504.4
488.53	1496.21
488.725	603.3
488.92	1043.61
489.116	2405.51
489.311	1895.57
489.507	740.51
489.702	1453.2
489.898	2401.41
490.093	1580.18
490.289	1520.79
490.485	959.64
490.68	1541.27
490.876	2579.59
491.072	1008.8
491.268	1172.63
491.464	2612.35
491.66	2387.08
491.856	1262.74
492.052	1731.73
492.248	2509.96
492.445	2327.69
492.641	1385.62
492.837	1299.61
493.034	2772.1
493.23	2886.78
493.427	1903.76
493.623	1453.2
493.82	2479.24
494.017	3099.77
494.214	1584.27
494.41	1563.79
494.607	2792.58
494.804	2434.18
495.001	1946.76
495.198	1897.61
495.395	3015.8
495.593	3044.48
495.79	1883.28
495.987	1762.45
496.184	2493.57
496.382	3224.7
496.579	1848.46
496.777	2264.2
496.974	3712.11
497.172	3335.29
497.37	2352.26
497.568	2086.03
497.766	4170.86
497.963	3296.38
498.161	2366.6
498.359	2643.07
498.558	4045.93
498.756	3859.57
498.954	2559.11
499.152	3036.28
499.351	3781.74
499.549	3767.41
499.747	2827.39
499.946	2776.19
500.145	3699.83
500.343	3875.95
500.542	2935.93
500.741	3034.24
500.94	4269.16
501.139	4361.32
501.338	3218.55
501.537	3433.59
501.736	4973.66
501.935	4549.73
502.134	3290.23
502.334	3548.28
502.533	4705.38
502.733	4641.89
502.932	3708.02
503.132	3630.2
503.331	4490.34
503.531	4959.33
503.731	3757.17
503.931	3722.35
504.131	4533.35
504.331	5332.06
504.531	3945.58
504.731	4185.19
504.931	5127.26
505.132	5098.59
505.332	4349.03
505.532	4080.75
505.733	5528.66
505.933	6018.13
506.134	4516.97
506.335	4377.7
506.536	5160.03
506.736	5854.29
506.937	4682.85
507.138	4539.49
507.34	6653
507.541	6003.79
507.742	5020.77
507.943	4703.33
508.145	5901.39
508.346	5571.67
508.548	4732
508.749	4951.14
508.951	5760.08
509.153	6014.03
509.354	5203.04
509.556	5276.76
509.758	6464.58
509.96	5989.46
510.163	5557.33
510.365	5612.63
510.567	6171.72
510.769	6331.47
510.972	5569.62
511.174	5964.88
511.377	6167.63
511.58	7826.48
511.782	5821.52
511.985	5696.6
512.188	7523.38
512.391	7124.03
512.594	5921.87
512.797	6257.74
513.001	7373.88
513.204	7711.8
513.407	6212.68
513.611	6341.71
513.814	7359.55
514.018	7775.28
514.222	6452.3
514.425	6579.27
514.629	7488.57
514.833	7476.28
515.037	6835.27
515.241	6417.48
515.445	7652.41
515.65	7275.58
515.854	7062.59
516.059	6874.18
516.263	7906.35
516.468	8197.17
516.672	7140.41
516.877	7128.13
517.082	7734.32
517.287	8219.69
517.492	7240.76
517.697	7146.56
517.902	8277.04
518.107	7914.55
518.313	7509.05
518.518	7121.98
518.724	8932.39
518.929	8313.9
519.135	7476.28
519.341	7005.25
519.547	8512.55
519.753	8784.93
519.959	7488.57
520.165	7545.91
520.371	9004.07
520.577	9532.44
520.784	7455.8
520.99	8096.82
521.197	8858.66
521.404	8549.42
521.61	7593.01
521.817	7849.01
522.024	9626.65
522.231	8627.24
522.438	7689.27
522.645	8408.11
522.853	8965.15
523.06	9335.84
523.268	8156.21
523.475	8309.8
523.683	9319.45
523.891	9268.25
524.098	8045.62
524.306	8391.72
524.514	9253.92
524.722	9339.93
524.931	8434.73
525.139	8221.74
525.347	8911.91
525.556	9327.64
525.764	8543.27
525.973	8528.94
526.182	9589.78
526.391	9200.67
526.6	8565.8
526.809	8965.15
527.018	9636.89
527.227	9939.99
527.436	8827.94
527.646	8741.93
527.855	9946.13
528.065	9475.1
528.275	8666.15
528.484	8930.34
528.694	10126.35
528.904	9913.36
529.114	9085.98
529.325	9307.16
529.535	9649.18
529.745	10097.68
529.956	8932.39
530.166	9194.53
530.377	10408.97
530.588	10595.34
530.799	9430.04
531.01	9331.74
531.221	10468.36
531.432	10771.46
531.643	9368.6
531.855	9929.75
532.066	10540.04
532.278	10290.19
532.489	9530.39
532.701	9380.89
532.913	10777.61
533.125	10699.78
533.337	9137.18
533.549	9427.99
533.762	10593.29
533.974	10064.91
534.186	9288.73
534.399	9772.05
534.612	11146.24
534.825	10810.37
535.037	9964.56
535.25	9925.65
535.464	10468.36
535.677	11111.43
535.89	9700.37
536.104	10134.54
536.317	10664.97
536.531	10851.33
536.744	10333.2
536.958	10036.24
537.172	11146.24
537.386	10947.59
537.6	10138.64
537.815	10136.59
538.029	11215.87
538.244	11371.52
538.458	9835.54
538.673	10107.92
538.888	11387.9
539.103	11740.15
539.318	10544.14
539.533	10200.08
539.748	11158.53
539.963	10767.37
540.179	9925.65
540.394	9997.33
540.61	10867.72
540.826	11179.01
541.042	10419.21
541.258	10198.03
541.474	12002.29
541.69	11463.68
541.906	10617.86
542.123	10494.99
542.339	11586.55
542.556	11129.86
542.773	10712.07
542.99	10675.21
543.207	11346.94
543.424	11293.69
543.641	10800.13
543.858	11437.05
544.076	11369.47
544.293	11578.36
544.511	10437.64
544.729	10763.27
544.947	11799.54
545.165	11666.42
545.383	10882.05
545.601	10900.48
545.819	12043.25
546.038	11930.61
546.256	11236.35
546.475	10978.31
546.694	12938.21
546.913	12291.06
547.132	11703.29
547.351	11136
547.57	11797.49
547.79	11871.22
548.009	11394.04
