Data from FLMT021711__22__16-32-40-840.txt Node

Date: Tue Nov 05 16:32:40 CET 2024
User: Etudiants TP
Spectrometer: FLMT02171
Trigger mode: 0
Integration Time (sec): 1.000000E-1
Scans to average: 5
Electric dark correction enabled: true
Nonlinearity correction enabled: false
Boxcar width: 15
XAxis mode: Wavelengths
Number of Pixels in Spectrum: 3648
>>>>>Begin Spectral Data<<<<<
194.658	-49.73
194.923	-49.63
195.188	-44.06
195.453	-42.35
195.717	-37.31
195.982	-36.54
196.247	-34.39
196.512	-36.7
196.777	-35.86
197.042	-34.22
197.307	-34.41
197.572	-31.15
197.837	-31.48
198.101	-29.64
198.366	-28.08
198.631	-26.06
198.896	-21.57
199.161	-16.3
199.425	-11.39
199.69	-3.45
199.955	-2.62
200.22	-5.85
200.484	-5.33
200.749	-6.82
201.014	-6.52
201.278	-6.76
201.543	-5.98
201.807	-7.14
202.072	-5.48
202.337	-5.47
202.601	-6.33
202.866	-6.49
203.13	-4.14
203.395	-5.65
203.659	-6.2
203.924	-8.18
204.189	-8.68
204.453	-8.49
204.717	-5.49
204.982	-4.95
205.246	-4.04
205.511	-2.63
205.775	-2.98
206.04	2.11
206.304	2.08
206.568	4.58
206.833	2.93
207.097	3.91
207.361	5.52
207.626	9.29
207.89	8.54
208.154	8.97
208.419	10.56
208.683	11.25
208.947	14.65
209.211	14.05
209.476	14.97
209.74	15.73
210.004	16.18
210.268	16.31
210.532	17.58
210.796	18.05
211.061	17.43
211.325	18.04
211.589	17.33
211.853	17.83
212.117	17.44
212.381	18.33
212.645	19
212.909	17.71
213.173	16.89
213.437	16.95
213.701	17.93
213.965	18.31
214.229	13.92
214.493	13.8
214.757	12.06
215.021	13.48
215.285	16.27
215.549	16.97
215.813	14.84
216.077	15.35
216.34	16.25
216.604	15.56
216.868	15.6
217.132	14.51
217.396	13.71
217.659	13.83
217.923	11.21
218.187	9.84
218.451	10.02
218.714	8.55
218.978	8.47
219.242	11.31
219.505	11.28
219.769	12.46
220.033	11.46
220.296	12.39
220.56	13.31
220.824	10.64
221.087	11.65
221.351	11.15
221.614	10.41
221.878	10.15
222.142	8.88
222.405	8.98
222.669	10.84
222.932	8.84
223.196	6.6
223.459	3.91
223.722	4.48
223.986	2.1
224.249	0.78
224.513	1.07
224.776	2.79
225.04	1.31
225.303	2.13
225.566	1.37
225.83	2.34
226.093	4.11
226.356	4.69
226.62	2.46
226.883	4.13
227.146	5.05
227.409	3.72
227.673	1.14
227.936	-0.15
228.199	1.38
228.462	0.78
228.725	-0.47
228.989	0.38
229.252	1.24
229.515	5.16
229.778	4.66
230.041	4.62
230.304	3.36
230.567	4.08
230.83	2.29
231.093	3.03
231.356	3.89
231.619	8.72
231.882	7.86
232.145	9.82
232.408	10.42
232.671	10.53
232.934	9.32
233.197	7.63
233.46	5.99
233.723	9
233.986	8.7
234.249	7.89
234.512	8.3
234.775	11.24
235.037	10.67
235.3	10.26
235.563	10.07
235.826	11.03
236.089	12.34
236.351	11.91
236.614	13.91
236.877	14.6
237.14	15.44
237.402	14.18
237.665	9.58
237.928	8.19
238.19	6.97
238.453	7.78
238.716	6.94
238.978	6.54
239.241	5.66
239.503	8.44
239.766	4.64
240.029	4.79
240.291	7.69
240.554	6.59
240.816	4.94
241.079	5.53
241.341	6.92
241.604	6.06
241.866	2.94
242.129	2.86
242.391	5.19
242.653	5.11
242.916	4.61
243.178	3.82
243.441	4.48
243.703	4.06
243.965	2.71
244.228	2.52
244.49	2.24
244.752	2.78
245.015	3.51
245.277	6.65
245.539	5.97
245.801	5.91
246.064	7.98
246.326	6.93
246.588	8.2
246.85	10.01
247.112	11.03
247.374	13.7
247.637	13.7
247.899	13.36
248.161	11.32
248.423	8.28
248.685	8.22
248.947	8.61
249.209	8.66
249.471	9.33
249.733	10.77
249.995	9.76
250.257	8.38
250.519	5.81
250.781	7.31
251.043	5.13
251.305	6.04
251.567	6.74
251.829	7.15
252.091	7.84
252.353	5.86
252.615	6.48
252.876	4.41
253.138	3.25
253.4	-0.93
253.662	-0.05
253.924	2.39
254.185	0.96
254.447	1.65
254.709	1.22
254.971	1.69
255.232	3.14
255.494	0.46
255.756	-1.33
256.017	-0.16
256.279	1.78
256.541	2.27
256.802	2.61
257.064	3.89
257.326	2.06
257.587	2.26
257.849	2.5
258.11	3.71
258.372	4.35
258.633	5.33
258.895	4.43
259.156	4.58
259.418	3.48
259.679	0.86
259.941	-0.99
260.202	0.49
260.464	2.15
260.725	1
260.987	-0.34
261.248	0.35
261.509	2.11
261.771	2.49
262.032	3.4
262.293	3.93
262.555	2.7
262.816	1.47
263.077	-0.69
263.338	-3.07
263.6	-1.01
263.861	-2.61
264.122	-3.82
264.383	-1.79
264.645	-1.02
264.906	-1.77
265.167	-1.37
265.428	-0.32
265.689	1.06
265.95	-0.05
266.211	1.94
266.473	1.01
266.734	-1.5
266.995	-4.5
267.256	-3.31
267.517	-1.41
267.778	0.58
268.039	1.77
268.3	1.23
268.561	-0.63
268.822	2.61
269.083	1.83
269.344	-1.12
269.604	-3.02
269.865	-3.76
270.126	-5.85
270.387	-3.62
270.648	-1.1
270.909	-1.26
271.17	-2.83
271.43	-5.37
271.691	-7.78
271.952	-7.18
272.213	-5.59
272.473	-8.81
272.734	-8.07
272.995	-6.77
273.256	-7.2
273.516	-5.6
273.777	-6.74
274.038	-5.74
274.298	-7.41
274.559	-7.13
274.82	-3.59
275.08	-0.23
275.341	1.08
275.601	0.15
275.862	-2.24
276.122	-1.67
276.383	-1.51
276.643	0.92
276.904	-0.71
277.164	2.23
277.425	2.39
277.685	6.29
277.946	7.71
278.206	9.04
278.467	7.95
278.727	6.74
278.987	6.97
279.248	7.74
279.508	9.42
279.768	10.71
280.029	11.24
280.289	8.04
280.549	7.35
280.81	7.79
281.07	7.15
281.33	8.24
281.59	6.85
281.851	7.59
282.111	7.14
282.371	6.85
282.631	7.95
282.891	7.64
283.151	5.54
283.412	3.53
283.672	3.51
283.932	4.96
284.192	5.91
284.452	4.11
284.712	1.3
284.972	1.25
285.232	-0.26
285.492	2.88
285.752	0.4
286.012	4.43
286.272	5.6
286.532	4.58
286.792	5.55
287.052	7
287.312	8.11
287.571	7.43
287.831	7.74
288.091	5.38
288.351	6.76
288.611	9.53
288.871	8.26
289.13	8.58
289.39	6.25
289.65	6.05
289.91	4.47
290.17	6.55
290.429	9
290.689	8.44
290.949	4.35
291.208	5.88
291.468	7.57
291.728	8.92
291.987	10.54
292.247	9.38
292.506	11.96
292.766	14.09
293.026	12.33
293.285	13.35
293.545	14.83
293.804	15.4
294.064	11.62
294.323	9.13
294.583	9.79
294.842	10.71
295.102	10.56
295.361	10.6
295.621	11.76
295.88	12.17
296.139	12.82
296.399	13.81
296.658	10.65
296.917	11.11
297.177	8.22
297.436	10.07
297.695	10.27
297.955	10.41
298.214	8.53
298.473	9.86
298.732	9.92
298.992	13.25
299.251	12.72
299.51	10.82
299.769	10.96
300.028	10.11
300.287	9.65
300.547	8.46
300.806	8.54
301.065	11.53
301.324	12.61
301.583	10.74
301.842	6.83
302.101	5.01
302.36	5.36
302.619	4.71
302.878	4.91
303.137	2.82
303.396	3.93
303.655	4.06
303.914	1.67
304.173	1.76
304.432	-0.08
304.691	2.41
304.95	-0.81
305.208	3.46
305.467	3.07
305.726	1.41
305.985	1.99
306.244	3.2
306.503	1.77
306.761	0.72
307.02	-0.4
307.279	0.82
307.537	1.12
307.796	-1.41
308.055	-3.71
308.314	-1.67
308.572	-2.66
308.831	-2.58
309.09	-2.84
309.348	-2.93
309.607	-5.23
309.865	-1.38
310.124	-0.73
310.382	-0.08
310.641	1.52
310.9	-0.72
311.158	0.96
311.417	0.54
311.675	2.46
311.933	3.27
312.192	4.93
312.45	6.11
312.709	5.45
312.967	7.06
313.226	7.14
313.484	6.57
313.742	6.86
314.001	5.79
314.259	4.62
314.517	5.34
314.776	7.06
315.034	9.27
315.292	8.19
315.55	6.39
315.809	5.57
316.067	6.21
316.325	3.76
316.583	6.34
316.841	4.86
317.1	3.85
317.358	1.89
317.616	1.74
317.874	1.4
318.132	1.04
318.39	1.84
318.648	0.36
318.906	0.05
319.164	-0.72
319.422	-2.19
319.68	-4.65
319.938	-3.49
320.196	-4.07
320.454	-4.55
320.712	-3.75
320.97	-3.94
321.228	-5.74
321.486	-5.04
321.744	-4.81
322.002	-2.36
322.26	-2.74
322.517	-3.32
322.775	-5.66
323.033	-7.77
323.291	-6.29
323.549	-4.36
323.806	-2.19
324.064	-0.72
324.322	0.06
324.58	-2.62
324.837	-0.32
325.095	-2.23
325.353	-1.34
325.61	1.16
325.868	0.18
326.126	1.21
326.383	-0.4
326.641	-0.49
326.898	0.94
327.156	0.9
327.413	2.16
327.671	2.88
327.928	3.33
328.186	4.14
328.443	4.39
328.701	6.78
328.958	7.09
329.216	7.54
329.473	6.09
329.731	7.25
329.988	7.48
330.245	9.05
330.503	9.35
330.76	10.17
331.017	12.14
331.275	10.35
331.532	11.28
331.789	9.08
332.047	7.49
332.304	6.07
332.561	7.21
332.818	5.76
333.076	6.76
333.333	8.5
333.59	8.18
333.847	9.15
334.104	7.93
334.361	7.84
334.618	7.07
334.876	6.07
335.133	6.52
335.39	5.13
335.647	6.38
335.904	4.08
336.161	1.42
336.418	1.38
336.675	-2.46
336.932	-0.95
337.189	-2.79
337.446	-1.23
337.703	-1.98
337.96	-5.48
338.216	-5.31
338.473	-7.3
338.73	-7.05
338.987	-7.65
339.244	-4.3
339.501	-7.01
339.757	-5.85
340.014	-3.06
340.271	-2.79
340.528	-2.95
340.785	0.34
341.041	1.7
341.298	-1.87
341.555	-2
341.811	-1.86
342.068	-3.24
342.325	-2.67
342.581	-0.98
342.838	0.09
343.094	0.08
343.351	0.14
343.608	-1.72
343.864	1.55
344.121	3.55
344.377	3.02
344.634	3.22
344.89	1.59
345.147	2.69
345.403	1.59
345.66	0.52
345.916	2.68
346.172	0.64
346.429	0.15
346.685	-1.4
346.942	-0.33
347.198	-4.64
347.454	-3.36
347.711	-2.73
347.967	-6.25
348.223	-5.1
348.48	-4.85
348.736	-3.55
348.992	-4.81
349.248	-1.45
349.504	-1.32
349.761	-1.42
350.017	-0.13
350.273	-0.09
350.529	-1.94
350.785	-2.98
351.041	-3.69
351.297	-1.87
351.554	-2.39
351.81	-5.93
352.066	-6.34
352.322	-5.46
352.578	-5.68
352.834	-5.64
353.09	-5.07
353.346	-4.42
353.602	-5.12
353.858	-6.8
354.114	-6.78
354.369	-6.26
354.625	-3.88
354.881	-6.57
355.137	-4.59
355.393	-4.17
355.649	-4.68
355.905	-4.26
356.16	-3.58
356.416	-2.61
356.672	-7.72
356.928	-7.74
357.183	-8.76
357.439	-8.26
357.695	-9.84
357.951	-6.78
358.206	-7.86
358.462	-7.52
358.718	-7.97
358.973	-7.9
359.229	-7.83
359.484	-7.39
359.74	-4.25
359.996	-4.11
360.251	-2.72
360.507	-2.23
360.762	-1.97
361.018	-0.69
361.273	-1.21
361.529	1.43
361.784	1.87
362.04	3.45
362.295	4.66
362.55	4.57
362.806	6.99
363.061	8.1
363.316	7.61
363.572	7.63
363.827	10.09
364.082	6.62
364.338	5.98
364.593	6.76
364.848	8.53
365.104	7.72
365.359	8.81
365.614	9.94
365.869	8.06
366.124	8.05
366.38	7.75
366.635	8.88
366.89	10.56
367.145	10.21
367.4	12.88
367.655	12.13
367.91	13.09
368.165	12.1
368.42	9.76
368.675	10.25
368.93	9.58
369.185	7.07
369.44	7.51
369.695	8.5
369.95	7.58
370.205	6.06
370.46	4.83
370.715	4.5
370.97	3.67
371.225	4.28
371.48	5.07
371.734	4.85
371.989	6.78
372.244	7.08
372.499	8.46
372.754	7.76
373.008	5
373.263	1.06
373.518	2.37
373.773	0.84
374.027	0.32
374.282	2.11
374.537	1.82
374.791	1.56
375.046	0.54
375.301	-0.85
375.555	-1.67
375.81	-1.36
376.064	-0.92
376.319	2.1
376.573	0.75
376.828	-2.31
377.082	0.63
377.337	-1.43
377.591	-2.39
377.846	-2.06
378.1	0.17
378.355	0.09
378.609	-1.5
378.863	-4.57
379.118	-3.67
379.372	-3.82
379.627	-6.67
379.881	-6.4
380.135	-6.14
380.389	-6.06
380.644	-6.19
380.898	-3.69
381.152	-1.19
381.407	-1.41
381.661	0.63
381.915	2.25
382.169	2.38
382.423	1.52
382.677	-0.41
382.932	-0.26
383.186	-0.29
383.44	-0.57
383.694	1.68
383.948	0.98
384.202	0.09
384.456	1.82
384.71	3.41
384.964	2.43
385.218	2.5
385.472	1.7
385.726	1.03
385.98	0.56
386.234	1.44
386.488	-0.14
386.742	2.92
386.996	1.46
387.249	3.37
387.503	5.83
387.757	5.42
388.011	5.33
388.265	4.47
388.518	3.96
388.772	4.41
389.026	4.27
389.28	1.26
389.533	0.34
389.787	2.33
390.041	0.29
390.295	1.18
390.548	1.75
390.802	5.7
391.055	4.69
391.309	5.18
391.563	2.56
391.816	2.32
392.07	1.07
392.323	2.51
392.577	4.04
392.83	4.59
393.084	9.93
393.337	12.92
393.591	13.97
393.844	14.72
394.098	16.98
394.351	19.92
394.604	20.1
394.858	20.48
395.111	19.09
395.364	17.51
395.618	18.76
395.871	15.67
396.124	15.4
396.378	15.56
396.631	15.7
396.884	13.79
397.137	14.33
397.391	14.8
397.644	12.36
397.897	13.34
398.15	13.53
398.403	15.92
398.657	13.32
398.91	13.31
399.163	13.7
399.416	13.79
399.669	12.66
399.922	12.56
400.175	10.61
400.428	11.71
400.681	12.82
400.934	11.44
401.187	12.94
401.44	14.38
401.693	13.29
401.946	11.15
402.199	8.13
402.452	6.4
402.704	4.22
402.957	3.75
403.21	5.27
403.463	5.13
403.716	8.03
403.969	8.55
404.221	8.02
404.474	9.29
404.727	12.89
404.98	15.6
405.232	16.49
405.485	18.7
405.738	20.46
405.99	20.93
406.243	20.83
406.496	21.78
406.748	21.07
407.001	19.62
407.253	19.46
407.506	20.86
407.759	21.81
408.011	18.59
408.264	17.34
408.516	17.7
408.769	12.53
409.021	10.87
409.274	8.71
409.526	9.39
409.778	8.47
410.031	11.23
410.283	11.76
410.536	16.58
410.788	14.92
411.04	14.2
411.293	15.29
411.545	15.54
411.797	16.18
412.049	14.82
412.302	14.24
412.554	13.92
412.806	12.36
413.058	9.56
413.311	9.77
413.563	8.13
413.815	6.95
414.067	5.78
414.319	4.19
414.571	4.86
414.823	3.99
415.075	3.21
415.328	2.55
415.58	4.31
415.832	6.92
416.084	7.93
416.336	6.74
416.588	11.01
416.84	9.61
417.091	11.25
417.343	9.01
417.595	11.31
417.847	11.44
418.099	13.06
418.351	11.55
418.603	14.5
418.855	15.17
419.106	14.37
419.358	13.53
419.61	12.95
419.862	14.86
420.114	14.31
420.365	14.23
420.617	13.97
420.869	14.09
421.12	12.96
421.372	14.46
421.624	14.99
421.875	13.99
422.127	12.36
422.379	12.86
422.63	14.87
422.882	14.68
423.133	15.23
423.385	15.36
423.636	15.54
423.888	14.74
424.139	16.23
424.391	13.37
424.642	11.93
424.894	11.7
425.145	12.99
425.396	10.18
425.648	12.68
425.899	10.82
426.151	11.44
426.402	10.19
426.653	11.24
426.905	10.69
427.156	9.69
427.407	10.28
427.658	10.17
427.91	8.53
428.161	7.51
428.412	9.74
428.663	10.46
428.914	10.76
429.166	11.7
429.417	12.45
429.668	11.98
429.919	11.33
430.17	11.08
430.421	11.41
430.672	14.64
430.923	14.76
431.174	14.22
431.425	16.71
431.676	20.62
431.927	22.81
432.178	30.24
432.429	36.72
432.68	42.27
432.931	47.05
433.182	51.57
433.433	49.68
433.683	53.25
433.934	52.68
434.185	51.44
434.436	50.29
434.687	51.28
434.937	52.47
435.188	50.59
435.439	50.53
435.69	52.1
435.94	51.48
436.191	51.75
436.442	52.48
436.692	51.75
436.943	49.13
437.194	46.91
437.444	48.8
437.695	52.16
437.945	52.44
438.196	51.41
438.447	49.28
438.697	49.39
438.948	48.82
439.198	45.3
439.449	38.9
439.699	34.39
439.949	28.46
440.2	23.43
440.45	18.04
440.701	12.7
440.951	10.12
441.201	11.1
441.452	7.62
441.702	7.24
441.952	8.44
442.203	7.55
442.453	7.11
442.703	8.18
442.953	9.38
443.204	9.76
443.454	8
443.704	9.4
443.954	6.65
444.204	6.07
444.455	5.46
444.705	6.2
444.955	7.92
445.205	7.61
445.455	5.04
445.705	5.69
445.955	5.76
446.205	5.64
446.455	6.65
446.705	6.88
446.955	6.91
447.205	8.47
447.455	10.05
447.705	7.58
447.955	5.12
448.205	5.42
448.454	5.6
448.704	6.22
448.954	4.07
449.204	4.43
449.454	4.35
449.704	2.82
449.953	3.32
450.203	4.34
450.453	2.54
450.703	3.64
450.952	2.33
451.202	2.97
451.452	2.53
451.701	4.78
451.951	8.18
452.201	9.15
452.45	8.71
452.7	8.47
452.949	7.02
453.199	6.93
453.448	7.67
453.698	8.57
453.947	7.93
454.197	7.07
454.446	5.66
454.696	7.84
454.945	8.61
455.195	6.83
455.444	8.87
455.693	12.63
455.943	11.37
456.192	12.15
456.442	12.22
456.691	12.06
456.94	12.4
457.189	11.32
457.439	13.3
457.688	14.44
457.937	13.15
458.186	13.75
458.436	12.76
458.685	13.13
458.934	12.14
459.183	10.94
459.432	12.01
459.681	11.44
459.93	10.91
460.179	11.29
460.429	9.91
460.678	12.63
460.927	15.08
461.176	14.27
461.425	14.97
461.674	16.97
461.923	17.36
462.172	16.23
462.42	15.36
462.669	16.07
462.918	16.58
463.167	16.8
463.416	14.55
463.665	14.82
463.914	14.17
464.162	12.42
464.411	12.63
464.66	13.7
464.909	12.29
465.158	12.01
465.406	12.31
465.655	14.14
465.904	15.03
466.152	15.81
466.401	17.21
466.65	18.44
466.898	18.26
467.147	14.51
467.395	13.52
467.644	14.68
467.893	14.43
468.141	14.84
468.39	11.86
468.638	10.03
468.887	7.36
469.135	5.4
469.384	4.82
469.632	4.48
469.88	5.39
470.129	6.38
470.377	3.54
470.626	6.19
470.874	6.12
471.122	7.93
471.371	7.95
471.619	7.94
471.867	10.98
472.115	11.34
472.364	9.59
472.612	12.1
472.86	11.32
473.108	10.61
473.356	10.3
473.605	8.81
473.853	7.27
474.101	5.64
474.349	5.33
474.597	7.95
474.845	8.54
475.093	7.52
475.341	5.46
475.589	5.72
475.837	6.73
476.085	9.18
476.333	8.4
476.581	11.06
476.829	11.54
477.077	13.61
477.325	13.48
477.573	14.66
477.821	13.05
478.069	14.83
478.317	13.46
478.564	16.04
478.812	14.15
479.06	12.03
479.308	11.71
479.555	11.67
479.803	10.72
480.051	12.56
480.299	13.1
480.546	14.07
480.794	13.48
481.042	14.56
481.289	16.04
481.537	16.75
481.784	16.68
482.032	21.35
482.28	20.07
482.527	20.41
482.775	21.4
483.022	24.59
483.27	26.73
483.517	30.85
483.765	30.3
484.012	32.08
484.259	31.72
484.507	34.23
484.754	35.01
485.002	36.3
485.249	37.22
485.496	40.92
485.744	41.34
485.991	41.63
486.238	41.07
486.486	45.08
486.733	47.56
486.98	49.97
487.227	49.82
487.474	52.28
487.722	54.07
487.969	52.71
488.216	52.85
488.463	52.92
488.71	50.85
488.957	50.08
489.204	50.68
489.451	52.85
489.699	50.7
489.946	49.82
490.193	49.65
490.44	48.64
490.687	48.22
490.934	45.98
491.18	41.51
491.427	42.63
491.674	43.3
491.921	43.43
492.168	41.79
492.415	39.18
492.662	38.95
492.909	39.68
493.155	37.94
493.402	35.94
493.649	33.6
493.896	32.71
494.142	28.78
494.389	27.67
494.636	26.18
494.883	22.26
495.129	20.61
495.376	18.64
495.623	19.07
495.869	20.32
496.116	20
496.362	21.32
496.609	22.72
496.855	24.93
497.102	23.61
497.348	23.08
497.595	22.58
497.841	24.44
498.088	23.78
498.334	21.41
498.581	19.13
498.827	19.91
499.074	20.31
499.32	19.94
499.566	22.07
499.813	21.58
500.059	20.58
500.305	20.38
500.552	18.35
500.798	16.45
501.044	19.16
501.29	18.05
501.537	15.56
501.783	17.84
502.029	19.84
502.275	16.95
502.521	16.06
502.767	15.84
503.013	17.6
503.26	15.21
503.506	11.76
503.752	12.72
503.998	9.74
504.244	9.5
504.49	6.11
504.736	7.19
504.982	5.08
505.228	6.73
505.474	5.36
505.72	6.3
505.966	6.78
506.211	8.7
506.457	7.96
506.703	4.82
506.949	4.91
507.195	2.95
507.441	0.36
507.686	2.06
507.932	0.39
508.178	1.47
508.424	1.6
508.669	-0.15
508.915	0.83
509.161	3.97
509.406	3.46
509.652	3.55
509.898	5.21
510.143	6.46
510.389	5.94
510.634	2.43
510.88	5.63
511.125	7.46
511.371	7.38
511.616	8.7
511.862	6.5
512.107	6.02
512.353	6.55
512.598	7.43
512.844	5.29
513.089	4.09
513.335	3.89
513.58	3.84
513.825	3.46
514.071	3.59
514.316	3.8
514.561	2.77
514.806	1.43
515.052	3.68
515.297	1.47
515.542	3.51
515.787	3.72
516.033	4.57
516.278	4.99
516.523	5.64
516.768	3.01
517.013	1.57
517.258	0.8
517.503	1.98
517.748	2.44
517.993	1.51
518.238	1.65
518.483	-0.08
518.728	-1.15
518.973	-1.61
519.218	-1.57
519.463	-1.27
519.708	-1.16
519.953	-2.69
520.198	-3.07
520.443	-1.25
520.688	1.05
520.933	1.2
521.177	0.39
521.422	-0.41
521.667	1.2
521.912	0.15
522.157	-1.34
522.401	1.47
522.646	1.17
522.891	2.63
523.135	1.59
523.38	1.48
523.625	-0.13
523.869	2.02
524.114	2.43
524.358	4.11
524.603	4.51
524.848	3.11
525.092	1.15
525.337	2.43
525.581	4.15
525.826	6.22
526.07	7.26
526.315	8.27
526.559	7.54
526.803	5.82
527.048	8.66
527.292	9.85
527.537	9.98
527.781	9.98
528.025	7.58
528.269	8.58
528.514	8.43
528.758	7.66
529.002	8.21
529.247	9.46
529.491	10.63
529.735	13.58
529.979	13.44
530.223	15.16
530.467	12.87
530.712	12.17
530.956	11.4
531.2	13.26
531.444	10.87
531.688	12.26
531.932	9.72
532.176	10.19
532.42	11.39
532.664	14.48
532.908	14.24
533.152	13.96
533.396	13.31
533.64	13.54
533.884	13.54
534.128	14.47
534.371	18.68
534.615	22.41
534.859	22.39
535.103	24.13
535.347	26.47
535.59	30.41
535.834	30.92
536.078	35.55
536.322	42.47
536.565	50.19
536.809	56.42
537.053	65.8
537.296	74.55
537.54	85.33
537.784	96.95
538.027	112.74
538.271	129.23
538.514	146.1
538.758	162.28
539.001	177.2
539.245	191.49
539.488	209.31
539.732	224.74
539.975	238.07
540.219	251.56
540.462	265
540.706	278.79
540.949	290.79
541.192	302.66
541.436	318.04
541.679	334.74
541.922	348.38
542.166	360.8
542.409	379.73
542.652	398.52
542.895	418.55
543.139	436.31
543.382	454.34
543.625	466.8
543.868	476.51
544.111	482.8
544.354	485.72
544.598	487.8
544.841	486.98
545.084	483.8
545.327	478.42
545.57	471.6
545.813	463.77
546.056	452.92
546.299	442.76
546.542	434.02
546.785	425.68
547.028	414.09
547.271	404.07
547.514	394.02
547.756	383.28
547.999	373.57
548.242	363.5
548.485	351.54
548.728	342.24
548.971	328.42
549.213	316.04
549.456	302.7
549.699	286.11
549.942	265.95
550.184	245.73
550.427	224.65
550.67	206.56
550.912	185.61
551.155	171
551.398	157.67
551.64	144.4
551.883	135.72
552.125	124.84
552.368	116.87
552.61	106.84
552.853	100.97
553.095	94.14
553.338	86.02
553.58	78.96
553.823	71.27
554.065	68.14
554.308	60.18
554.55	54.03
554.792	46.62
555.035	41.37
555.277	36.53
555.519	33.43
555.762	30
556.004	28.75
556.246	23.69
556.488	22.56
556.731	17.41
556.973	14.93
557.215	12.44
557.457	14.39
557.699	16.64
557.941	13.25
558.183	12.53
558.426	14.33
558.668	10.81
558.91	10.33
559.152	10.86
559.394	7.4
559.636	8.44
559.878	8.99
560.12	8.14
560.362	8.03
560.604	6.48
560.845	6.13
561.087	6.05
561.329	7.94
561.571	4.13
561.813	4.91
562.055	3.98
562.297	3.96
562.538	4.59
562.78	5.85
563.022	3.51
563.264	2.59
563.505	2.24
563.747	2.78
563.989	0.98
564.23	0.8
564.472	0.23
564.714	2.51
564.955	1.98
565.197	-2.87
565.438	-0.07
565.68	1.29
