Data from FLMT021711__19__16-32-22-355.txt Node

Date: Tue Nov 05 16:32:22 CET 2024
User: Etudiants TP
Spectrometer: FLMT02171
Trigger mode: 0
Integration Time (sec): 1.000000E-1
Scans to average: 5
Electric dark correction enabled: true
Nonlinearity correction enabled: false
Boxcar width: 15
XAxis mode: Wavelengths
Number of Pixels in Spectrum: 3648
>>>>>Begin Spectral Data<<<<<
194.658	-44.33
194.923	-43.52
195.188	-37.7
195.453	-37.5
195.717	-33.81
195.982	-33.2
196.247	-33.59
196.512	-35.76
196.777	-34.18
197.042	-33.41
197.307	-33.08
197.572	-29.19
197.837	-28.3
198.101	-26.01
198.366	-24.21
198.631	-22.83
198.896	-17.44
199.161	-12.78
199.425	-8.01
199.69	-0.12
199.955	-0.88
200.22	-1.44
200.484	-1.62
200.749	-1.95
201.014	-0.65
201.278	-0.91
201.543	0.6
201.807	0.74
202.072	1.41
202.337	0.68
202.601	1.48
202.866	1.11
203.13	3.68
203.395	2.43
203.659	2.81
203.924	2.14
204.189	3.41
204.453	5.64
204.717	8.12
204.982	8.89
205.246	11.32
205.511	13
205.775	12.31
206.04	15.21
206.304	14.41
206.568	15.06
206.833	15.19
207.097	15.27
207.361	17.34
207.626	20.79
207.89	19.97
208.154	20.38
208.419	20.25
208.683	18.56
208.947	20.74
209.211	20.21
209.476	20.28
209.74	20.46
210.004	20.31
210.268	21.21
210.532	23.18
210.796	23.4
211.061	22.2
211.325	21.57
211.589	19.95
211.853	19.94
212.117	19.24
212.381	19.82
212.645	19.62
212.909	18.92
213.173	17.42
213.437	16.38
213.701	15.75
213.965	15.02
214.229	11.95
214.493	12.33
214.757	12.54
215.021	12.76
215.285	15.32
215.549	16.94
215.813	15.29
216.077	14.98
216.34	16.25
216.604	15.29
216.868	16.32
217.132	14.51
217.396	14.48
217.659	14.94
217.923	11.27
218.187	12.34
218.451	12.22
218.714	11.09
218.978	12.07
219.242	15.06
219.505	15.1
219.769	16
220.033	16.9
220.296	18.62
220.56	18.37
220.824	16.63
221.087	17.01
221.351	16.56
221.614	15.87
221.878	16.86
222.142	16.42
222.405	16.77
222.669	19.58
222.932	17.34
223.196	16.95
223.459	13.74
223.722	14.58
223.986	13.96
224.249	13.74
224.513	14.8
224.776	16.09
225.04	15.45
225.303	15.96
225.566	15.55
225.83	16.64
226.093	18.32
226.356	15.15
226.62	13.33
226.883	13.72
227.146	13.79
227.409	13.62
227.673	11.94
227.936	11.12
228.199	11.39
228.462	8.51
228.725	7.44
228.989	8.74
229.252	10.21
229.515	14.85
229.778	14.43
230.041	14.01
230.304	13.38
230.567	14.07
230.83	11.01
231.093	12.22
231.356	10.64
231.619	15.83
231.882	15.43
232.145	16.6
232.408	15.46
232.671	14.7
232.934	13.75
233.197	13.86
233.46	13.46
233.723	14.8
233.986	12.96
234.249	12.17
234.512	15.38
234.775	17.47
235.037	17.47
235.3	17.28
235.563	15.9
235.826	17.02
236.089	18.99
236.351	17.79
236.614	21.26
236.877	22.5
237.14	23.32
237.402	23.22
237.665	17.6
237.928	18.53
238.19	16.51
238.453	17.79
238.716	16.91
238.978	17.12
239.241	15.64
239.503	17.71
239.766	14.96
240.029	11.91
240.291	14
240.554	14.77
240.816	13.89
241.079	14.06
241.341	12.6
241.604	12.11
241.866	9.57
242.129	12.01
242.391	14.23
242.653	12.7
242.916	13.57
243.178	13.75
243.441	13.32
243.703	12.93
243.965	11.78
244.228	12.19
244.49	12.55
244.752	13.24
245.015	13.85
245.277	15.27
245.539	14.34
245.801	16.52
246.064	15.35
246.326	16.44
246.588	16.06
246.85	17.92
247.112	17.66
247.374	19.66
247.637	21.15
247.899	20.3
248.161	22.46
248.423	18.44
248.685	17
248.947	16.25
249.209	16.67
249.471	18.91
249.733	19.94
249.995	18.31
250.257	15.99
250.519	13.53
250.781	15.52
251.043	13.47
251.305	14.09
251.567	15.73
251.829	16.35
252.091	16.09
252.353	13.23
252.615	14.39
252.876	12.82
253.138	11.36
253.4	8.06
253.662	7.97
253.924	8.83
254.185	10.89
254.447	9.58
254.709	10.29
254.971	11.61
255.232	12.73
255.494	12.04
255.756	10.22
256.017	10.57
256.279	10.11
256.541	10.61
256.802	12.44
257.064	14.67
257.326	13.14
257.587	12.73
257.849	14.18
258.11	16.72
258.372	17.45
258.633	19.02
258.895	17.39
259.156	16.83
259.418	15.38
259.679	12.41
259.941	11.16
260.202	12.2
260.464	13.91
260.725	12.61
260.987	12.03
261.248	11.24
261.509	12.57
261.771	13.3
262.032	14.2
262.293	13.67
262.555	13.59
262.816	11.47
263.077	8.56
263.338	7.34
263.6	7.12
263.861	6.36
264.122	6.24
264.383	7.02
264.645	7.61
264.906	5.85
265.167	6.3
265.428	5.85
265.689	7.19
265.95	2.96
266.211	3.91
266.473	3.67
266.734	1.58
266.995	-0.33
267.256	-0.05
267.517	1.61
267.778	4.39
268.039	5.97
268.3	5.35
268.561	3.63
268.822	5.96
269.083	3.98
269.344	1.91
269.604	0.64
269.865	-0.64
270.126	-1.68
270.387	-1.78
270.648	-0.33
270.909	0.55
271.17	-0.71
271.43	-2.78
271.691	-4.53
271.952	-4.93
272.213	-3.06
272.473	-5
272.734	-3.88
272.995	-2.27
273.256	-2.93
273.516	-0.4
273.777	-2.24
274.038	1.75
274.298	0.23
274.559	0.67
274.82	4
275.08	7.2
275.341	8.78
275.601	7.74
275.862	4.59
276.122	4.6
276.383	3.84
276.643	5.06
276.904	4.32
277.164	7.7
277.425	9.36
277.685	12.51
277.946	13.12
278.206	12.1
278.467	12.6
278.727	12.9
278.987	12.19
279.248	13.16
279.508	14.54
279.768	15.72
280.029	17.72
280.289	14.41
280.549	13.96
280.81	13.79
281.07	12.44
281.33	13.62
281.59	11.49
281.851	14.01
282.111	13.3
282.371	14.6
282.631	15.97
282.891	14.82
283.151	12.7
283.412	10.82
283.672	11.56
283.932	12.7
284.192	13.11
284.452	12.87
284.712	10.96
284.972	9.08
285.232	6.47
285.492	8.24
285.752	5.67
286.012	12.11
286.272	14.13
286.532	12.88
286.792	11.66
287.052	13.74
287.312	13.23
287.571	12.87
287.831	13.76
288.091	11.15
288.351	11.62
288.611	14.96
288.871	14.37
289.13	14.57
289.39	11.48
289.65	13.6
289.91	12.13
290.17	14.33
290.429	14.6
290.689	12.09
290.949	9.87
291.208	10.75
291.468	13.46
291.728	13.34
291.987	14.87
292.247	14.2
292.506	16.41
292.766	18.29
293.026	17.64
293.285	18.57
293.545	20.01
293.804	21.23
294.064	17
294.323	14.42
294.583	14.39
294.842	15.96
295.102	15.32
295.361	16.93
295.621	17.51
295.88	17.38
296.139	17.79
296.399	18.29
296.658	13.79
296.917	13.63
297.177	12.28
297.436	14.09
297.695	12.04
297.955	12.86
298.214	10.63
298.473	11.41
298.732	13.36
298.992	14.84
299.251	14.37
299.51	12.21
299.769	12.8
300.028	13.06
300.287	12.17
300.547	10.98
300.806	9.8
301.065	11.56
301.324	12.57
301.583	10.01
301.842	6.57
302.101	4.86
302.36	6
302.619	6.14
302.878	6.49
303.137	4.47
303.396	5.07
303.655	6.19
303.914	4.03
304.173	3.51
304.432	3.26
304.691	5.78
304.95	4.8
305.208	7.71
305.467	6.77
305.726	6.73
305.985	6.52
306.244	7.46
306.503	6.91
306.761	4.92
307.02	3.59
307.279	4.87
307.537	4.29
307.796	1.95
308.055	-0.79
308.314	1.25
308.572	0.86
308.831	1.87
309.09	3.15
309.348	3.44
309.607	3.3
309.865	7.43
310.124	6.96
310.382	8.67
310.641	10.21
310.9	7.8
311.158	8.51
311.417	6.75
311.675	7.35
311.933	8.68
312.192	9.92
312.45	9.85
312.709	9.4
312.967	8.85
313.226	9.38
313.484	8.8
313.742	7.25
314.001	5.22
314.259	4.6
314.517	5.38
314.776	8.4
315.034	10.82
315.292	8.83
315.55	9.06
315.809	8.57
316.067	9.52
316.325	8.33
316.583	10.03
316.841	9.06
317.1	6.14
317.358	3.35
317.616	2.57
317.874	0.71
318.132	0.76
318.39	-0.3
318.648	-2.85
318.906	-1.68
319.164	-0.96
319.422	-1.04
319.68	-3
319.938	-3.33
320.196	-3.79
320.454	-3.6
320.712	-3.25
320.97	-3.13
321.228	-5.11
321.486	-3.24
321.744	0.17
322.002	2.54
322.26	1.51
322.517	1.51
322.775	-1.58
323.033	-3.71
323.291	-2.29
323.549	-2.8
323.806	-1.34
324.064	-1.15
324.322	0.8
324.58	-0.38
324.837	1.57
325.095	0.73
325.353	3.27
325.61	5.64
325.868	5.7
326.126	6.87
326.383	5.49
326.641	4.44
326.898	4.99
327.156	4.45
327.413	4.78
327.671	5.57
327.928	7.72
328.186	8.02
328.443	6.91
328.701	9.36
328.958	10.41
329.216	10.96
329.473	9.93
329.731	9
329.988	9.06
330.245	9.93
330.503	11.23
330.76	11.98
331.017	14.23
331.275	12.27
331.532	13.53
331.789	13.11
332.047	12.78
332.304	8.93
332.561	9.01
332.818	7.34
333.076	9.94
333.333	10.27
333.59	10.45
333.847	11.77
334.104	10.44
334.361	10.72
334.618	11.09
334.876	9.31
335.133	8.76
335.39	6.96
335.647	8.11
335.904	4.96
336.161	4.36
336.418	6.32
336.675	2.09
336.932	3.22
337.189	2.21
337.446	2.35
337.703	2.35
337.96	-0.43
338.216	-0.02
338.473	-3.06
338.73	-3.17
338.987	-3.9
339.244	-1.34
339.501	-3.19
339.757	-3.11
340.014	-2.76
340.271	-1.04
340.528	-0.9
340.785	1.83
341.041	2.55
341.298	0.73
341.555	0.34
341.811	-0.22
342.068	-1.72
342.325	-1.94
342.581	0.22
342.838	2.37
343.094	2.91
343.351	4.22
343.608	0.47
343.864	2.28
344.121	3.26
344.377	1.65
344.634	1.8
344.89	0.34
345.147	0.45
345.403	0.12
345.66	-0.26
345.916	1.29
346.172	-0.35
346.429	-1.18
346.685	-2.38
346.942	-2.76
347.198	-4.74
347.454	-2.02
347.711	-2.33
347.967	-4.27
348.223	-2.61
348.48	-2.27
348.736	-0.64
348.992	-1.15
349.248	0.89
349.504	0.07
349.761	-0.73
350.017	-0.4
350.273	-1.26
350.529	-1.08
350.785	-1.26
351.041	-1.82
351.297	-0.59
351.554	0.54
351.81	-1.91
352.066	-2.35
352.322	-1.57
352.578	0.26
352.834	0.46
353.09	0.48
353.346	0.19
353.602	-0.91
353.858	-1.96
354.114	-2.36
354.369	-0.57
354.625	1.94
354.881	1.8
355.137	2.91
355.393	1.65
355.649	3.58
355.905	3.83
356.16	3.5
356.416	3.04
356.672	-1.59
356.928	-2.11
357.183	-3.42
357.439	-2.87
357.695	-3.76
357.951	0.73
358.206	1.39
358.462	0.1
358.718	-2.5
358.973	-2.11
359.229	-3.7
359.484	-3.5
359.74	0.04
359.996	-0.67
360.251	2.14
360.507	1.25
360.762	1.11
361.018	2.88
361.273	1.51
361.529	2.23
361.784	3.33
362.04	5.25
362.295	4.97
362.55	5.1
362.806	6.69
363.061	7.23
363.316	7.79
363.572	7.08
363.827	9.03
364.082	6.67
364.338	6.71
364.593	8.09
364.848	8.34
365.104	6.99
365.359	8.94
365.614	9.5
365.869	5.54
366.124	5.38
366.38	5.5
366.635	7.42
366.89	8.43
367.145	9.84
367.4	12.68
367.655	12.26
367.91	11.86
368.165	8.74
368.42	7.21
368.675	7.97
368.93	8.26
369.185	7.2
369.44	7.73
369.695	9.32
369.95	9.08
370.205	8.39
370.46	7.31
370.715	4.87
370.97	4.32
371.225	3.87
371.48	5.12
371.734	4.97
371.989	5.85
372.244	6.61
372.499	6.66
372.754	5.76
373.008	4.79
373.263	0.62
373.518	2.32
373.773	3.17
374.027	2.63
374.282	4.53
374.537	5.37
374.791	6.49
375.046	5.02
375.301	3.66
375.555	2.45
375.81	4.96
376.064	6.06
376.319	7.02
376.573	5.68
376.828	3.31
377.082	6.93
377.337	5.07
377.591	3.14
377.846	3.38
378.1	4.95
378.355	4.87
378.609	6.06
378.863	4.08
379.118	5.23
379.372	4.07
379.627	3.26
379.881	0.67
380.135	0.16
380.389	0.88
380.644	1.49
380.898	2.35
381.152	3.64
381.407	4.29
381.661	4.3
381.915	5.82
382.169	5.23
382.423	3.73
382.677	0.39
382.932	1.66
383.186	4.16
383.44	4.73
383.694	4.75
383.948	3.75
384.202	3.93
384.456	5.22
384.71	5.71
384.964	4.37
385.218	6.14
385.472	5.83
385.726	5.54
385.98	6.08
386.234	5.93
386.488	3.77
386.742	5.01
386.996	3.53
387.249	3.5
387.503	4.68
387.757	6.24
388.011	6.83
388.265	6.39
388.518	6.79
388.772	8.22
389.026	9.19
389.28	6.24
389.533	6.61
389.787	7.94
390.041	5.89
390.295	6.06
390.548	7.08
390.802	8.52
391.055	6.44
391.309	6.13
391.563	5.29
391.816	5.61
392.07	4.6
392.323	5.67
392.577	6.84
392.83	7.56
393.084	10.95
393.337	12.96
393.591	13.74
393.844	13.16
394.098	16.11
394.351	19.34
394.604	21.84
394.858	22.76
395.111	22.61
395.364	21.11
395.618	23.17
395.871	21.99
396.124	21.14
396.378	20.54
396.631	20.3
396.884	17.84
397.137	18.09
397.391	18.09
397.644	15.97
397.897	17.23
398.15	17.64
398.403	19.6
398.657	19.26
398.91	16.9
399.163	18.22
399.416	17.75
399.669	16.48
399.922	16.11
400.175	15.15
400.428	15.48
400.681	17.3
400.934	16.76
401.187	18.94
401.44	20.83
401.693	19.16
401.946	17.52
402.199	15.06
402.452	13.97
402.704	10.9
402.957	11.73
403.21	13.21
403.463	12.7
403.716	13.86
403.969	15.56
404.221	16.14
404.474	17.18
404.727	19.76
404.98	22.16
405.232	22.83
405.485	23.23
405.738	24.52
405.99	25.39
406.243	26.66
406.496	27.45
406.748	29.11
407.001	27.09
407.253	27.29
407.506	27.7
407.759	28.86
408.011	26.47
408.264	26.38
408.516	24.7
408.769	20.65
409.021	18.05
409.274	14.18
409.526	16.25
409.778	14.42
410.031	16.17
410.283	15.04
410.536	20.26
410.788	16.87
411.04	16.56
411.293	18.05
411.545	18.8
411.797	18.55
412.049	18.14
412.302	19.19
412.554	19.6
412.806	17.43
413.058	15.51
413.311	16.05
413.563	14.93
413.815	13.91
414.067	11.69
414.319	11.07
414.571	11.27
414.823	10.53
415.075	9.81
415.328	11.67
415.58	14.46
415.832	15.52
416.084	15.51
416.336	13.92
416.588	17.07
416.84	16.4
417.091	19.58
417.343	16.82
417.595	18.9
417.847	18.89
418.099	20.45
418.351	18.66
418.603	21.28
418.855	22.36
419.106	22.42
419.358	22.1
419.61	21.65
419.862	22.1
420.114	21.17
420.365	21.56
420.617	22.1
420.869	21.35
421.12	21.5
421.372	21.89
421.624	22.64
421.875	23.15
422.127	20.45
422.379	20.9
422.63	23.4
422.882	23.52
423.133	22.33
423.385	21.38
423.636	23.75
423.888	25
424.139	28.35
424.391	26.08
424.642	24.08
424.894	22.55
425.145	22.85
425.396	21.48
425.648	23.97
425.899	22
426.151	22.61
426.402	21.95
426.653	21.31
426.905	19.41
427.156	17.09
427.407	16.77
427.658	17.06
427.91	14.53
428.161	12.99
428.412	14.93
428.663	16.21
428.914	17.49
429.166	18.73
429.417	18.56
429.668	18.22
429.919	17.34
430.17	16.63
430.421	16.55
430.672	18.42
430.923	19.17
431.174	20
431.425	22.85
431.676	27.2
431.927	30.92
432.178	39.05
432.429	49.05
432.68	55.15
432.931	62.95
433.182	69.02
433.433	68.32
433.683	72.17
433.934	71.62
434.185	71.94
434.436	71.55
434.687	73.43
434.937	76.08
435.188	74.69
435.439	73.65
435.69	74.92
435.94	74.27
436.191	73.8
436.442	73.22
436.692	71.61
436.943	69.42
437.194	67.87
437.444	69.71
437.695	72.51
437.945	72.97
438.196	70.9
438.447	68.8
438.697	68.02
438.948	65.7
439.198	59.48
439.449	52.32
439.699	46.08
439.949	38.58
440.2	29.42
440.45	23.45
440.701	17.04
440.951	13.05
441.201	12.24
441.452	9.25
441.702	8.14
441.952	9.49
442.203	9.45
442.453	7.76
442.703	8.14
442.953	9.35
443.204	10.18
443.454	9.36
443.704	11.67
443.954	9.15
444.204	9.76
444.455	10.03
444.705	11.24
444.955	12.28
445.205	10.21
445.455	8.6
445.705	8.69
445.955	9.83
446.205	11.13
446.455	11.01
446.705	10.56
446.955	12.21
447.205	12.09
447.455	13.62
447.705	12.45
447.955	11.95
448.205	12.55
448.454	12.98
448.704	12.68
448.954	10.28
449.204	11.04
449.454	11.76
449.704	9.36
449.953	8.23
450.203	9.25
450.453	6.53
450.703	6.82
450.952	5.76
451.202	7.05
451.452	4.73
451.701	7.39
451.951	10.27
452.201	10.06
452.45	8.72
452.7	10.4
452.949	9.83
453.199	9.54
453.448	10.84
453.698	12.34
453.947	11.06
454.197	10.96
454.446	10.38
454.696	12.25
454.945	12.01
455.195	10.43
455.444	10.35
455.693	13.33
455.943	12.09
456.192	12.46
456.442	12.29
456.691	12.09
456.94	10.64
457.189	10.01
457.439	11.18
457.688	13.53
457.937	13.16
458.186	13.63
458.436	14.63
458.685	15.63
458.934	14.09
459.183	14.69
459.432	16.37
459.681	17.04
459.93	15.77
460.179	15.54
460.429	13.57
460.678	16.12
460.927	18.54
461.176	16.53
461.425	15.72
461.674	18.44
461.923	17.63
462.172	18.61
462.42	16.17
462.669	18.74
462.918	17.16
463.167	18.5
463.416	15.47
463.665	16.89
463.914	16.93
464.162	14.89
464.411	16.83
464.66	18.35
464.909	17.64
465.158	18.05
465.406	16.47
465.655	17.78
465.904	19.34
466.152	19.93
466.401	20.2
466.65	21.19
466.898	20.31
467.147	17.35
467.395	15.81
467.644	17.78
467.893	18.7
468.141	18.7
468.39	16.12
468.638	14.35
468.887	14.23
469.135	14.1
469.384	12.8
469.632	13.5
469.88	13.07
470.129	15.29
470.377	12.19
470.626	15.51
470.874	15.66
471.122	17.2
471.371	15.03
471.619	13.22
471.867	15.98
472.115	16.4
472.364	14.71
472.612	17.45
472.86	17.12
473.108	18.83
473.356	18.53
473.605	17.53
473.853	14.91
474.101	14.03
474.349	13.86
474.597	16.34
474.845	15.9
475.093	15.01
475.341	13.91
475.589	12.31
475.837	11.98
476.085	13.66
476.333	14.29
476.581	15.22
476.829	14.44
477.077	15.73
477.325	17.23
477.573	18.8
477.821	17.2
478.069	19.83
478.317	19.51
478.564	21.55
478.812	19.64
479.06	19.58
479.308	19.68
479.555	19.7
479.803	17.97
480.051	21.31
480.299	20.36
480.546	20.65
480.794	19.59
481.042	21.31
481.289	22.41
481.537	24.74
481.784	25.81
482.032	28.01
482.28	28.78
482.527	29.32
482.775	31.56
483.022	33.05
483.27	37.84
483.517	43.52
483.765	44.3
484.012	44.56
484.259	44.32
484.507	46.76
484.754	48.53
485.002	49.56
485.249	50.38
485.496	53.7
485.744	53.41
485.991	53.9
486.238	53.25
486.486	56.55
486.733	57.61
486.98	59.96
487.227	59.29
487.474	61.82
487.722	63.83
487.969	64.59
488.216	64.72
488.463	65.38
488.71	63.74
488.957	63.01
489.204	62.37
489.451	62.17
489.699	62.63
489.946	59.19
490.193	58.6
490.44	56.84
490.687	57.96
490.934	54.21
491.18	49.7
491.427	50.16
491.674	51.33
491.921	51.24
492.168	51.42
492.415	48.62
492.662	47.86
492.909	48.07
493.155	46.78
493.402	44.7
493.649	41.61
493.896	42.24
494.142	40.3
494.389	39.03
494.636	38.11
494.883	36.04
495.129	34.65
495.376	30.66
495.623	30.66
495.869	31.71
496.116	32.19
496.362	31.68
496.609	33.12
496.855	36.45
497.102	35.5
497.348	33.25
497.595	33.1
497.841	35.32
498.088	33.7
498.334	31.35
498.581	30.63
498.827	30.21
499.074	29.23
499.32	29.86
499.566	32.47
499.813	30.51
500.059	28.71
500.305	28.81
500.552	27.08
500.798	25.29
501.044	26.84
501.29	26.57
501.537	23.11
501.783	22.74
502.029	25.2
502.275	24.08
502.521	23.05
502.767	22.71
503.013	25.03
503.26	22.25
503.506	19.24
503.752	19.86
503.998	17.47
504.244	16
504.49	12.28
504.736	13.24
504.982	13.07
505.228	15.54
505.474	16.07
505.72	16.9
505.966	15.61
506.211	18.18
506.457	18.06
506.703	16.15
506.949	13.82
507.195	11.29
507.441	8.09
507.686	11.05
507.932	9.85
508.178	11.09
508.424	9.31
508.669	9.11
508.915	10.81
509.161	12.71
509.406	13.94
509.652	13.33
509.898	13.97
510.143	14.46
510.389	13.48
510.634	10.48
510.88	13.27
511.125	15.19
511.371	13.97
511.616	15.53
511.862	14.61
512.107	13.79
512.353	14.7
512.598	15.34
512.844	13.33
513.089	11.49
513.335	11.24
513.58	12.46
513.825	11.91
514.071	11.72
514.316	11.83
514.561	12.44
514.806	12.03
515.052	15.06
515.297	12.48
515.542	14.33
515.787	14.77
516.033	16.73
516.278	17.43
516.523	16.15
516.768	15.64
517.013	13.47
517.258	13.82
517.503	13.13
517.748	13.43
517.993	14.01
518.238	14.26
518.483	12.95
518.728	12.7
518.973	11.38
519.218	10.88
519.463	12.77
519.708	11.48
519.953	9.7
520.198	9.03
520.443	10.28
520.688	10.35
520.933	10.99
521.177	11.3
521.422	9
521.667	10.62
521.912	11
522.157	7.81
522.401	10.05
522.646	8.85
522.891	10.32
523.135	9.97
523.38	10
523.625	8.92
523.869	9.36
524.114	10.64
524.358	9.47
524.603	9.02
524.848	6.88
525.092	5.83
525.337	7.7
525.581	8.13
525.826	9.53
526.07	9.25
526.315	9.84
526.559	9.96
526.803	10.88
527.048	11.76
527.292	12.25
527.537	12.89
527.781	13.06
528.025	12.09
528.269	13.67
528.514	13.75
528.758	12.19
529.002	13.17
529.247	16.95
529.491	17.17
529.735	23.48
529.979	22.5
530.223	25.05
530.467	23.99
530.712	22.51
530.956	22.95
531.2	25.2
531.444	24.68
531.688	27.08
531.932	28.47
532.176	31.53
532.42	32.93
532.664	36.19
532.908	36.55
533.152	37.56
533.396	39.38
533.64	41.95
533.884	44.48
534.128	47.4
534.371	51.8
534.615	57.56
534.859	62.87
535.103	67.88
535.347	73.84
535.59	81.77
535.834	87.93
536.078	97.89
536.322	111.04
536.565	126.35
536.809	137.66
537.053	157.49
537.296	175.71
537.54	201.43
537.784	230.85
538.027	266.32
538.271	302.96
538.514	339.9
538.758	376.93
539.001	413.04
539.245	447.8
539.488	483.37
539.732	516.77
539.975	550.29
540.219	583.59
540.462	613.32
540.706	643.24
540.949	672.07
541.192	700.5
541.436	732.67
541.679	767.85
541.922	805.59
542.166	842.51
542.409	889.46
542.652	936.34
542.895	983.71
543.139	1026.1
543.382	1067.01
543.625	1097.08
543.868	1122.77
544.111	1142.87
544.354	1158.49
544.598	1167.45
544.841	1171.55
545.084	1167.19
545.327	1158.17
545.57	1143.52
545.813	1126.06
546.056	1104.86
546.299	1083.11
546.542	1061.96
546.785	1040.7
547.028	1018.12
547.271	995.8
547.514	972.81
547.756	949.57
547.999	929.71
548.242	908.37
548.485	883.94
548.728	860.93
548.971	832.63
549.213	804.18
549.456	768.6
549.699	730.17
549.942	684.22
550.184	637.4
550.427	588.61
550.67	543.78
550.912	498.35
551.155	464.53
551.398	430.48
551.64	398.7
551.883	369.81
552.125	342.71
552.368	320.61
552.61	299.67
552.853	280.22
553.095	262.09
553.338	245.84
553.58	230.03
553.823	214.2
554.065	201.73
554.308	187.12
554.55	174.28
554.792	163.18
555.035	152.16
555.277	140.09
555.519	130.23
555.762	121.44
556.004	113.28
556.246	103.85
556.488	98.97
556.731	91.29
556.973	86.23
557.215	79.49
557.457	76.33
557.699	73.62
557.941	68.8
558.183	65.01
558.426	63.73
558.668	57.13
558.91	54.81
559.152	52.61
559.394	50.77
559.636	49.99
559.878	47.66
560.12	45.57
560.362	45.22
560.604	43.43
560.845	42.03
561.087	40.32
