Data from FLMT021711__14__17-06-39-953.txt Node

Date: Tue Nov 05 17:06:39 CET 2024
User: Etudiants TP
Spectrometer: FLMT02171
Trigger mode: 0
Integration Time (sec): 1,000000E-1
Scans to average: 5
Electric dark correction enabled: true
Nonlinearity correction enabled: false
Boxcar width: 15
XAxis mode: Wavelengths
Number of Pixels in Spectrum: 3648
>>>>>Begin Spectral Data<<<<<
194,658	-53,01
194,923	-49,6
195,188	-43,39
195,453	-43,47
195,717	-38,35
195,982	-37,1
196,247	-37,26
196,512	-39,26
196,777	-36,93
197,042	-35,52
197,307	-35,33
197,572	-30,52
197,837	-30,06
198,101	-27,71
198,366	-25,5
198,631	-24,08
198,896	-18,75
199,161	-15,78
199,425	-10,85
199,69	-1,66
199,955	-2,75
200,22	-5,32
200,484	-6,4
200,749	-5,64
201,014	-5,3
201,278	-5,89
201,543	-4,12
201,807	-4,87
202,072	-3,11
202,337	-2,91
202,601	-2,99
202,866	-5,36
203,13	-5,62
203,395	-7,36
203,659	-6,14
203,924	-7,93
204,189	-7,58
204,453	-5,79
204,717	-3,08
204,982	-2,25
205,246	-0,6
205,511	1,27
205,775	-1,29
206,04	2,91
206,304	2,82
206,568	4,64
206,833	5,13
207,097	4,97
207,361	8,75
207,626	12,86
207,89	14,01
208,154	16,12
208,419	17,05
208,683	17,39
208,947	19,49
209,211	19,54
209,476	18,7
209,74	19,6
210,004	19,16
210,268	19,7
210,532	22,73
210,796	23,07
211,061	24,79
211,325	26,21
211,589	24,43
211,853	24,1
212,117	25,22
212,381	25,93
212,645	26,25
212,909	25,1
213,173	22,05
213,437	21,83
213,701	21,17
213,965	22,68
214,229	18,32
214,493	17,91
214,757	16,74
215,021	15,84
215,285	19,58
215,549	19,85
215,813	16,79
216,077	16,5
216,34	16,87
216,604	15,37
216,868	16,34
217,132	15,99
217,396	15,53
217,659	16,55
217,923	13,12
218,187	15,15
218,451	14,14
218,714	11,51
218,978	11,51
219,242	12,59
219,505	12,73
219,769	15,06
220,033	15
220,296	14,76
220,56	14,25
220,824	12,37
221,087	13,91
221,351	14,45
221,614	13,99
221,878	15,46
222,142	13,86
222,405	15,28
222,669	16,45
222,932	12,18
223,196	10,91
223,459	7,89
223,722	9,08
223,986	8,02
224,249	7,59
224,513	7,74
224,776	8,83
225,04	8,16
225,303	8,65
225,566	8,08
225,83	9,81
226,093	12,3
226,356	9,6
226,62	8,09
226,883	10,4
227,146	11,57
227,409	10,67
227,673	8,82
227,936	7,24
228,199	8,08
228,462	6,79
228,725	6,85
228,989	6,25
229,252	5,85
229,515	10,5
229,778	8,7
230,041	7,65
230,304	6,04
230,567	4,11
230,83	2,97
231,093	6,09
231,356	7,33
231,619	12,49
231,882	11,94
232,145	13,28
232,408	11,23
232,671	11,11
232,934	11,16
233,197	9,71
233,46	9,01
233,723	10,28
233,986	8,07
234,249	7,16
234,512	10,15
234,775	13,85
235,037	12,82
235,3	12,32
235,563	12,32
235,826	12,07
236,089	14,28
236,351	13,67
236,614	15,25
236,877	15,5
237,14	18,5
237,402	18,38
237,665	13,5
237,928	14,33
238,19	13,19
238,453	15,4
238,716	15,75
238,978	15,12
239,241	14,62
239,503	14,44
239,766	10,13
240,029	9,38
240,291	12,1
240,554	11,58
240,816	11,36
241,079	11
241,341	11,62
241,604	10,37
241,866	7,39
242,129	8,02
242,391	9,54
242,653	6,88
242,916	5,42
243,178	4,14
243,441	4,36
243,703	3,95
243,965	3,85
244,228	4,78
244,49	4,08
244,752	5,89
245,015	5,44
245,277	6,36
245,539	5,67
245,801	6,53
246,064	5,76
246,326	5,73
246,588	5,13
246,85	7,87
247,112	8,89
247,374	9,05
247,637	11,98
247,899	10,34
248,161	9,7
248,423	5,67
248,685	6,54
248,947	6,62
249,209	7,12
249,471	7,92
249,733	8,8
249,995	9,2
250,257	9,49
250,519	7,81
250,781	11,01
251,043	9,51
251,305	10,51
251,567	11,97
251,829	11,83
252,091	12,55
252,353	7,58
252,615	8,33
252,876	5,91
253,138	6,3
253,4	3,12
253,662	3,83
253,924	5,35
254,185	6,61
254,447	6,59
254,709	7,13
254,971	6,81
255,232	8,35
255,494	7,16
255,756	5,41
256,017	5,65
256,279	5,68
256,541	6,22
256,802	7,23
257,064	8,7
257,326	8,32
257,587	8,25
257,849	9,19
258,11	11,68
258,372	12,59
258,633	13,09
258,895	11,6
259,156	11,66
259,418	10,18
259,679	6,65
259,941	4,64
260,202	5,57
260,464	7,41
260,725	7,85
260,987	8,15
261,248	6,8
261,509	7,83
261,771	6,87
262,032	8
262,293	8,17
262,555	6,97
262,816	5,69
263,077	4,38
263,338	2,72
263,6	3,93
263,861	2,43
264,122	2,58
264,383	6,06
264,645	6,6
264,906	5,35
265,167	2,84
265,428	1,78
265,689	3,1
265,95	-0,07
266,211	0,62
266,473	0,25
266,734	-2,78
266,995	-6,4
267,256	-6,29
267,517	-3,09
267,778	1,43
268,039	3,01
268,3	1,73
268,561	0
268,822	2,19
269,083	-0,52
269,344	-2,17
269,604	-3,17
269,865	-1,47
270,126	-5,07
270,387	-4,43
270,648	-3,09
270,909	-3,75
271,17	-4,55
271,43	-7,7
271,691	-9,83
271,952	-10,5
272,213	-8,37
272,473	-12,08
272,734	-11,26
272,995	-10,86
273,256	-8,52
273,516	-5,88
273,777	-9,37
274,038	-6,95
274,298	-9,66
274,559	-10,62
274,82	-5,73
275,08	-1,88
275,341	0,13
275,601	-1,2
275,862	-5,23
276,122	-4,21
276,383	-4,42
276,643	-2,44
276,904	-4,64
277,164	-1,97
277,425	-0,58
277,685	2,94
277,946	1,48
278,206	2,5
278,467	3,2
278,727	3,19
278,987	3,14
279,248	2,39
279,508	4,51
279,768	6,46
280,029	8,22
280,289	4,34
280,549	3,95
280,81	4,64
281,07	4,53
281,33	5,29
281,59	2,65
281,851	6,87
282,111	6,82
282,371	7,31
282,631	9,19
282,891	7,84
283,151	6,42
283,412	4,08
283,672	4,4
283,932	6,07
284,192	5,81
284,452	4,38
284,712	1,9
284,972	0,95
285,232	-1,9
285,492	0,16
285,752	-2,79
286,012	2,52
286,272	4,03
286,532	1,47
286,792	1,69
287,052	4,66
287,312	5,32
287,571	4,29
287,831	4,32
288,091	1,56
288,351	3,38
288,611	6,68
288,871	6,55
289,13	6,75
289,39	2,79
289,65	4,88
289,91	2,19
290,17	3,98
290,429	7,13
290,689	5,08
290,949	2,48
291,208	4,32
291,468	7,25
291,728	6,87
291,987	8,6
292,247	8,14
292,506	10,48
292,766	13,85
293,026	13,81
293,285	15,46
293,545	17,47
293,804	18,67
294,064	15,8
294,323	13,83
294,583	14,88
294,842	16,55
295,102	16,09
295,361	16,82
295,621	17,53
295,88	17,81
296,139	17,94
296,399	20,41
296,658	15,85
296,917	15,23
297,177	13,04
297,436	15,43
297,695	13,24
297,955	14,03
298,214	12,8
298,473	11,86
298,732	13,12
298,992	15,59
299,251	15,25
299,51	12,02
299,769	12,61
300,028	12,38
300,287	11,89
300,547	12,46
300,806	10,68
301,065	13,23
301,324	15,53
301,583	11,72
301,842	8,02
302,101	6,3
302,36	7,68
302,619	7,91
302,878	7,94
303,137	5,47
303,396	6,93
303,655	8,08
303,914	5,85
304,173	6,9
304,432	4,4
304,691	7,05
304,95	5,89
305,208	10,4
305,467	9,78
305,726	9,75
305,985	11,51
306,244	12,8
306,503	12,9
306,761	11,61
307,02	9,9
307,279	8,44
307,537	10,05
307,796	7,48
308,055	4,04
308,314	5,55
308,572	3,34
308,831	3,65
309,09	3,27
309,348	2,94
309,607	2,24
309,865	6,59
310,124	6,91
310,382	7,79
310,641	7,49
310,9	5,41
311,158	5,53
311,417	5,43
311,675	5,12
311,933	6,73
312,192	8,06
312,45	7,84
312,709	7,29
312,967	6,04
313,226	4,89
313,484	4,23
313,742	3,5
314,001	1,95
314,259	0,23
314,517	2,23
314,776	4,74
315,034	7,01
315,292	7,92
315,55	5,83
315,809	5,81
316,067	6,86
316,325	6,43
316,583	8,25
316,841	7,91
317,1	6,86
317,358	4,23
317,616	4,23
317,874	3,46
318,132	3,14
318,39	2,32
318,648	2,88
318,906	1,94
319,164	1,72
319,422	0,96
319,68	-0,11
319,938	-0,07
320,196	0,48
320,454	2
320,712	1,89
320,97	1,55
321,228	-0,7
321,486	1,45
321,744	2,97
322,002	3,5
322,26	2,49
322,517	-0,17
322,775	-3,32
323,033	-5,35
323,291	-4,49
323,549	-3,1
323,806	-1,03
324,064	0,13
324,322	0,27
324,58	-1,67
324,837	-0,26
325,095	-1,89
325,353	0,19
325,61	2,06
325,868	1,08
326,126	1,85
326,383	1,8
326,641	-0,1
326,898	2,8
327,156	2,68
327,413	2,1
327,671	2,93
327,928	5,12
328,186	4,95
328,443	4,31
328,701	8,43
328,958	9,91
329,216	10,98
329,473	10,07
329,731	10,28
329,988	9,96
330,245	12,05
330,503	13,19
330,76	13,52
331,017	15,31
331,275	12,64
331,532	13,26
331,789	10,91
332,047	10,04
332,304	7,36
332,561	8,28
332,818	6,88
333,076	8,89
333,333	9,28
333,59	10,17
333,847	11,38
334,104	11,02
334,361	9,72
334,618	9,49
334,876	7,21
335,133	8,11
335,39	7,27
335,647	8,65
335,904	4,43
336,161	1,9
336,418	1,39
336,675	-2,69
336,932	-1,66
337,189	-2,25
337,446	-2
337,703	-3,26
337,96	-5,5
338,216	-4,43
338,473	-5,33
338,73	-4,3
338,987	-3,69
339,244	-0,12
339,501	-2,42
339,757	-0,43
340,014	0,73
340,271	2,23
340,528	1,96
340,785	6,9
341,041	6,6
341,298	3,75
341,555	2,69
341,811	2,13
342,068	0,94
342,325	1,76
342,581	4,72
342,838	6,34
343,094	4,95
343,351	5,63
343,608	3,63
343,864	5,67
344,121	8,14
344,377	8,94
344,634	7,18
344,89	6,29
345,147	5,84
345,403	5,18
345,66	5,94
345,916	7,8
346,172	4,74
346,429	4,14
346,685	1,68
346,942	0,52
347,198	-3,82
347,454	-3,11
347,711	-4,7
347,967	-8,2
348,223	-7,73
348,48	-8,02
348,736	-6,65
348,992	-7,49
349,248	-5,26
349,504	-6,2
349,761	-5,47
350,017	-5,44
350,273	-5,92
350,529	-7,64
350,785	-8,91
351,041	-8,01
351,297	-7,41
351,554	-8,61
351,81	-9,58
352,066	-12,89
352,322	-14,38
352,578	-11,57
352,834	-12,42
353,09	-12,57
353,346	-12,4
353,602	-13,65
353,858	-14,91
354,114	-14,88
354,369	-14,76
354,625	-12,09
354,881	-13,37
355,137	-10,29
355,393	-9,91
355,649	-8,91
355,905	-7,48
356,16	-7,77
356,416	-6,28
356,672	-12,57
356,928	-10,93
357,183	-11,14
357,439	-9,6
357,695	-12,67
357,951	-8,73
358,206	-9,37
358,462	-9,63
358,718	-10,91
358,973	-10,06
359,229	-9,51
359,484	-9,2
359,74	-7,18
359,996	-6,04
360,251	-2,86
360,507	-4,38
360,762	-4,38
361,018	-1,41
361,273	-2,6
361,529	-1,19
361,784	-1,25
362,04	0,24
362,295	0,09
362,55	-0,1
362,806	1,31
363,061	1,07
363,316	2,33
363,572	2,82
363,827	4,99
364,082	3,72
364,338	2,74
364,593	2,93
364,848	2,47
365,104	1,39
365,359	3,46
365,614	5,24
365,869	2,6
366,124	3,31
366,38	1,67
366,635	2,9
366,89	3,45
367,145	2,69
367,4	5,82
367,655	5,94
367,91	7,3
368,165	5,05
368,42	4,24
368,675	5,59
368,93	4,58
369,185	1,01
369,44	0,92
369,695	4,36
369,95	2,75
370,205	1,47
370,46	0,35
370,715	0,62
370,97	1,08
371,225	-0,6
371,48	0,47
371,734	-0,18
371,989	0,12
372,244	0,32
372,499	1,62
372,754	0,17
373,008	-0,74
373,263	-5,56
373,518	-4,69
373,773	-5,88
374,027	-6,52
374,282	-2,61
374,537	-2,11
374,791	-1,17
375,046	-2,07
375,301	-3,48
375,555	-5,79
375,81	-5,12
376,064	-4,05
376,319	-3,12
376,573	-4,72
376,828	-6,27
377,082	-0,5
377,337	-1,66
377,591	-4,24
377,846	-2,72
378,1	0,53
378,355	1,37
378,609	0,5
378,863	-1,46
379,118	0,86
379,372	-0,56
379,627	-0,2
379,881	-0,81
380,135	-1,3
380,389	-0,77
380,644	0,61
380,898	1,46
381,152	3,12
381,407	3,35
381,661	4,3
381,915	6,09
382,169	4,32
382,423	3,4
382,677	1,11
382,932	2,06
383,186	3
383,44	4,24
383,694	6,75
383,948	4,6
384,202	4,63
384,456	7,31
384,71	8,27
384,964	6,52
385,218	8,39
385,472	7,61
385,726	6,85
385,98	6,04
386,234	4,96
386,488	2,33
386,742	2,33
386,996	-0,41
387,249	0,67
387,503	0,61
387,757	2,2
388,011	3,96
388,265	4,01
388,518	4,64
388,772	5,74
389,026	7,44
389,28	5,32
389,533	5,04
389,787	6,95
390,041	6,27
390,295	7,68
390,548	7,53
390,802	9,92
391,055	8,07
391,309	8,97
391,563	5,72
391,816	7,56
392,07	5,76
392,323	5,75
392,577	6,65
392,83	7,64
393,084	11,52
393,337	14,98
393,591	15,67
393,844	16
394,098	20,55
394,351	24,32
394,604	25,99
394,858	28,02
395,111	27,52
395,364	25,06
395,618	26
395,871	23,69
396,124	22,71
396,378	22,33
396,631	22,83
396,884	19,46
397,137	19,26
397,391	20,65
397,644	17,43
397,897	17,87
398,15	17,31
398,403	19,17
398,657	17,38
398,91	17,43
399,163	16,59
399,416	18,06
399,669	15,53
399,922	15,93
400,175	15,69
400,428	15,46
400,681	15,31
400,934	11,27
401,187	9,66
401,44	8,78
401,693	7,15
401,946	3,66
402,199	0,82
402,452	0,26
402,704	-3,54
402,957	-3,18
403,21	-0,68
403,463	-0,85
403,716	-0,15
403,969	2,4
404,221	1,21
404,474	2,99
404,727	6,22
404,98	9,19
405,232	8,69
405,485	9,98
405,738	11,94
405,99	11,84
406,243	13,64
406,496	15,15
406,748	15,12
407,001	13,88
407,253	13,19
407,506	14,95
407,759	15,07
408,011	11,85
408,264	12,06
408,516	12,39
408,769	9,9
409,021	10,98
409,274	11,57
409,526	13,31
409,778	13,13
410,031	15,58
410,283	16,27
410,536	21,8
410,788	20,16
411,04	18,94
411,293	18,64
411,545	20,19
411,797	17,69
412,049	16,5
412,302	14,94
412,554	15,66
412,806	13,55
413,058	11,08
413,311	11,49
413,563	9,65
413,815	9,77
414,067	7,12
414,319	5,05
414,571	7,58
414,823	6,6
415,075	6,1
415,328	6,9
415,58	11,21
415,832	13,71
416,084	13,93
416,336	12,03
416,588	15,73
416,84	14,28
417,091	17,67
417,343	15,31
417,595	16,17
417,847	15,82
418,099	16,33
418,351	16,24
418,603	18,14
418,855	19,75
419,106	20,89
419,358	20,35
419,61	20,78
419,862	22,53
420,114	22,39
420,365	22,86
420,617	24,47
420,869	24,62
421,12	24,15
421,372	25
421,624	25,38
421,875	24,83
422,127	23,4
422,379	22,78
422,63	25,63
422,882	24,54
423,133	24,23
423,385	23,4
423,636	23,97
423,888	26,27
424,139	29,63
424,391	28,13
424,642	27,26
424,894	24,52
425,145	24,41
425,396	23,52
425,648	25,74
425,899	25,14
426,151	24,98
426,402	24,16
426,653	24,6
426,905	24,17
427,156	22,71
427,407	23,47
427,658	22,64
427,91	21,66
428,161	20,7
428,412	21,31
428,663	21,91
428,914	22,55
429,166	23,71
429,417	24,16
429,668	24,95
429,919	23,69
430,17	23,61
430,421	24,4
430,672	27,21
430,923	26,27
431,174	25,87
431,425	26,22
431,676	24,59
431,927	21,43
432,178	22,56
432,429	23,11
432,68	22,7
432,931	26,3
433,182	28,59
433,433	27,15
433,683	28,19
433,934	27,86
434,185	27,09
434,436	25,66
434,687	26,93
434,937	29,75
435,188	28,04
435,439	28,55
435,69	29,01
435,94	27,94
436,191	29,45
436,442	30,9
436,692	30,26
436,943	29,03
437,194	28,07
437,444	30,12
437,695	35,11
437,945	34,93
438,196	34,51
438,447	34,04
438,697	35,81
438,948	35,07
439,198	32,69
439,449	30,22
439,699	32,3
439,949	32,85
440,2	34,37
440,45	36,2
440,701	34,78
440,951	33,78
441,201	35,22
441,452	34,91
441,702	34,87
441,952	37,37
442,203	39,12
442,453	38,5
442,703	38,76
442,953	41,71
443,204	44,07
443,454	43,63
443,704	46,12
443,954	44,8
444,204	45,37
444,455	47,87
444,705	49,59
444,955	51,62
445,205	52,18
445,455	51,21
445,705	52,62
445,955	53,7
446,205	54,41
446,455	56,18
446,705	58,27
446,955	60,32
447,205	62,81
447,455	65,85
447,705	65,96
447,955	64,87
448,205	67,83
448,454	69,42
448,704	72,89
448,954	72,03
449,204	73,84
449,454	76,03
449,704	75,85
449,953	76,32
450,203	79,18
450,453	78,55
450,703	81,18
450,952	81,11
451,202	83,72
451,452	83,41
451,701	85,1
451,951	89,57
452,201	88,53
452,45	87,91
452,7	89,18
452,949	89,75
453,199	89,49
453,448	91,15
453,698	92,43
453,947	92,11
454,197	91,59
454,446	90,66
454,696	93,47
454,945	94,57
455,195	91,97
455,444	93,22
455,693	96,97
455,943	93,71
456,192	94,52
456,442	93,7
456,691	93,09
456,94	91,59
457,189	90,09
457,439	91,34
457,688	91,31
457,937	90,28
458,186	90,47
458,436	88,91
458,685	88,9
458,934	87,33
459,183	86,52
459,432	88,16
459,681	87,18
459,93	87,33
460,179	87,69
460,429	85,93
460,678	87,2
460,927	87,35
461,176	85,27
461,425	83,71
461,674	85,32
461,923	83,72
462,172	83,47
462,42	81,5
462,669	81,41
462,918	80,02
463,167	77,52
463,416	72,31
463,665	73,22
463,914	70,47
464,162	67,98
464,411	68,23
464,66	69,71
464,909	66,72
465,158	65,68
465,406	65,52
465,655	66,01
465,904	67,12
466,152	67,38
466,401	67,53
466,65	69,08
466,898	67,33
467,147	64,23
467,395	62,85
467,644	64,26
467,893	63,18
468,141	62,84
468,39	57,94
468,638	56,78
468,887	55,37
469,135	54,37
469,384	52,94
469,632	54,23
469,88	52,74
470,129	54,01
470,377	50,95
470,626	54,23
470,874	55,49
471,122	58,12
471,371	56,04
471,619	56,94
471,867	58,52
472,115	58,51
472,364	55,15
472,612	57,17
472,86	55,96
473,108	56,46
473,356	55,57
473,605	54,39
473,853	50,96
474,101	49,02
474,349	46,93
474,597	49,81
474,845	46,74
475,093	44,7
475,341	41,5
475,589	41,44
475,837	41,57
476,085	44,17
476,333	43,32
476,581	43,86
476,829	41,55
477,077	43,77
477,325	41,92
477,573	44,26
477,821	41,37
478,069	42,31
478,317	39,91
478,564	42,34
478,812	40,1
479,06	38,1
479,308	36,16
479,555	35,95
479,803	35,09
480,051	36,91
480,299	37,19
480,546	36,67
480,794	33,49
481,042	33,64
481,289	32,67
481,537	34,28
481,784	33,98
482,032	35,64
482,28	33,92
482,527	34,32
482,775	33,68
483,022	34,94
483,27	36,07
483,517	38,65
483,765	36,9
484,012	36,98
484,259	35,27
484,507	38,92
484,754	38,22
485,002	38,1
485,249	35,05
485,496	39,51
485,744	39,22
485,991	39,29
486,238	36,71
486,486	38,4
486,733	41,25
486,98	43,58
487,227	42,34
487,474	43,91
487,722	45,12
487,969	43,65
488,216	44,23
488,463	44,06
488,71	42,49
488,957	41,85
489,204	41,88
489,451	43,83
489,699	42,92
489,946	40,93
490,193	42
490,44	43,04
490,687	44,11
490,934	42,84
491,18	39,7
491,427	41,44
491,674	43,2
491,921	43,99
492,168	42,11
492,415	40,91
492,662	43,04
492,909	46,11
493,155	43,63
493,402	42,75
493,649	41,23
493,896	42,09
494,142	39,75
494,389	38,4
494,636	36,33
494,883	34,93
495,129	33,13
495,376	31,21
495,623	32,34
495,869	34,88
496,116	37,08
496,362	37,57
496,609	39,77
496,855	44,26
497,102	42,93
497,348	44,03
497,595	46,03
497,841	48,4
498,088	46,89
498,334	45,63
498,581	43,95
498,827	45,12
499,074	45,99
499,32	49,54
499,566	52,67
499,813	54,65
500,059	51,83
500,305	51,66
500,552	49,85
500,798	50,48
501,044	53,89
501,29	54,05
501,537	52,1
501,783	55,03
502,029	59,13
502,275	58,12
502,521	57,57
502,767	59,11
503,013	63,38
503,26	61,98
503,506	57,92
503,752	57,94
503,998	57,73
504,244	58,45
504,49	54,9
504,736	56,05
504,982	55,3
505,228	56,59
505,474	56,25
505,72	57,67
505,966	58,09
506,211	61,67
506,457	60,93
506,703	59,16
506,949	56,39
507,195	55,14
507,441	50,16
507,686	53,32
507,932	51,57
508,178	54,06
508,424	50,84
508,669	48,56
508,915	49,19
509,161	51,56
509,406	51,8
509,652	49,89
509,898	53,21
510,143	53,29
510,389	53,26
510,634	48,73
510,88	51,61
511,125	54,15
511,371	56,06
511,616	57,35
511,862	55,44
512,107	53,62
512,353	54,88
512,598	54,94
512,844	52,46
513,089	50,76
513,335	50,95
513,58	49,09
513,825	48,01
514,071	47,79
514,316	47,65
514,561	46,96
514,806	46,71
515,052	51,91
515,297	51,69
515,542	53,29
515,787	53,04
516,033	55,53
516,278	56,13
516,523	55,93
516,768	54,38
517,013	53,75
517,258	52,34
517,503	51,44
517,748	52,17
517,993	51,64
518,238	51,04
518,483	49,6
518,728	49,86
518,973	48,03
519,218	47,08
519,463	47,01
519,708	45,62
519,953	44,39
520,198	44,26
520,443	46,92
520,688	49,67
520,933	49,36
521,177	50,12
521,422	49,11
521,667	50,86
521,912	51,7
522,157	49,11
522,401	51
522,646	49,82
522,891	49,02
523,135	49,91
523,38	49,54
523,625	47,92
523,869	49,59
524,114	51,13
524,358	50,96
524,603	50,48
524,848	50,26
525,092	50,09
525,337	51,39
525,581	52,22
525,826	56,11
526,07	56,65
526,315	55,85
526,559	56,16
526,803	56,21
527,048	58,89
527,292	60,84
527,537	60,53
527,781	59,97
528,025	57,95
528,269	58,86
528,514	60,15
528,758	59,75
529,002	59,03
529,247	60,67
529,491	59,05
529,735	62,92
529,979	61,78
530,223	62,4
530,467	60,09
530,712	58,58
530,956	57,92
531,2	59,2
531,444	56,47
531,688	57,04
531,932	56,51
532,176	56,25
532,42	55,82
532,664	56,55
532,908	55,92
533,152	54,55
533,396	54,16
533,64	53,04
533,884	51,05
534,128	49,82
534,371	49,89
534,615	51,1
534,859	48,79
535,103	48,43
535,347	49,69
535,59	50,6
535,834	47,07
536,078	47,49
536,322	47,16
536,565	49,8
536,809	49,36
537,053	50,49
537,296	47,77
537,54	47,09
537,784	45,78
538,027	47,77
538,271	45,66
538,514	43,97
538,758	43,57
539,001	42,79
539,245	42,4
539,488	42,95
539,732	44,21
539,975	44,94
540,219	46,76
540,462	47,62
540,706	48,81
540,949	46,91
541,192	48,16
541,436	53,85
541,679	57,71
541,922	58,4
542,166	53,76
542,409	55,69
542,652	56,25
542,895	55,17
543,139	55,37
543,382	59,79
543,625	59,16
543,868	61,19
544,111	61,2
544,354	59,21
544,598	58,19
544,841	60,39
545,084	60,34
545,327	59,75
545,57	61,81
545,813	65,2
546,056	66,21
546,299	67,15
546,542	70,3
546,785	72,76
547,028	73,88
547,271	74,01
547,514	73,86
547,756	70,69
547,999	70,56
548,242	71,47
548,485	70,04
548,728	70,46
548,971	66,75
549,213	65,6
549,456	64,3
549,699	66,51
549,942	66,27
550,184	64,61
550,427	65,47
550,67	65,67
550,912	61,01
551,155	61,95
551,398	60,77
551,64	59,85
551,883	60,73
552,125	60,75
552,368	61,02
552,61	59,29
552,853	60,91
553,095	58,97
553,338	58,15
553,58	58,44
553,823	57,71
554,065	58,8
554,308	54,56
554,55	51,66
554,792	48,86
555,035	48,82
555,277	48,24
555,519	48,78
555,762	47,3
556,004	47,9
556,246	44,49
556,488	45,9
556,731	44,05
556,973	45,62
557,215	44,11
557,457	45,28
557,699	48,55
557,941	45,68
558,183	44,6
558,426	46,15
558,668	42,24
558,91	42,93
559,152	42,45
559,394	40,39
559,636	41,74
559,878	42,72
560,12	42,99
560,362	44,59
560,604	44,41
560,845	43,51
561,087	43,17
561,329	44,47
561,571	42,51
561,813	43,82
562,055	44,26
562,297	45,94
562,538	46,45
562,78	48,85
563,022	45,77
