Data from led_4000k_2_FLMT021711__4__17-32-40-619.txt Node

Date: Tue Nov 05 17:32:40 CET 2024
User: Etudiants TP
Spectrometer: FLMT02171
Trigger mode: 0
Integration Time (sec): 1,000000E-1
Scans to average: 5
Electric dark correction enabled: true
Nonlinearity correction enabled: true
Boxcar width: 15
XAxis mode: Wavelengths
Number of Pixels in Spectrum: 3648
>>>>>Begin Spectral Data<<<<<
194,658	-61,63
194,923	-61,8
195,188	-55,59
195,453	-54,61
195,717	-48,95
195,982	-47,5
196,247	-45,7
196,512	-49,15
196,777	-46,66
197,042	-45,08
197,307	-44,57
197,572	-40,02
197,837	-40,06
198,101	-37,66
198,366	-35,85
198,631	-33,45
198,896	-27,35
199,161	-19,63
199,425	-11,52
199,69	-2,04
199,955	-2,21
200,22	-5,82
200,484	-5,6
200,749	-7,74
201,014	-6,23
201,278	-5,9
201,543	-5,41
201,807	-7,31
202,072	-6,46
202,337	-5,44
202,601	-5,49
202,866	-6,33
203,13	-4,54
203,395	-5,64
203,659	-6,37
203,924	-8,3
204,189	-7,5
204,453	-6,6
204,717	-3,72
204,982	-3,33
205,246	-1,6
205,511	0,34
205,775	-0,87
206,04	4,95
206,304	5,49
206,568	6,99
206,833	6,17
207,097	7,85
207,361	8,8
207,626	11,11
207,89	11,11
208,154	11,58
208,419	13,61
208,683	12,74
208,947	16,41
209,211	15,98
209,476	15,82
209,74	16,19
210,004	16,76
210,268	18,23
210,532	20,78
210,796	20,38
211,061	20,22
211,325	22,55
211,589	20,72
211,853	22,07
212,117	21,48
212,381	22,35
212,645	22,37
212,909	21,96
213,173	19,27
213,437	19,24
213,701	19,39
213,965	20,44
214,229	15,67
214,493	15,17
214,757	14,15
215,021	15,33
215,285	18,6
215,549	21,51
215,813	19,57
216,077	19,42
216,34	21,14
216,604	20,67
216,868	20,78
217,132	22,08
217,396	21,04
217,659	21,29
217,923	17,52
218,187	17,97
218,451	15,37
218,714	12,07
218,978	13,26
219,242	15,33
219,505	14,46
219,769	16,51
220,033	17,25
220,296	18,89
220,56	18,86
220,824	17,6
221,087	18,68
221,351	18,83
221,614	17,76
221,878	18,38
222,142	17,05
222,405	15,15
222,669	17,34
222,932	14,79
223,196	11,92
223,459	8,29
223,722	8,51
223,986	6,6
224,249	6,16
224,513	5,41
224,776	5,45
225,04	5,06
225,303	2,42
225,566	2,38
225,83	5,1
226,093	8,14
226,356	6,52
226,62	6,28
226,883	8,73
227,146	8,06
227,409	8,45
227,673	5,37
227,936	3,48
228,199	2,74
228,462	0,72
228,725	0,15
228,989	-0,17
229,252	1,57
229,515	7,88
229,778	6,41
230,041	6,16
230,304	3,13
230,567	6,17
230,83	4,16
231,093	5,49
231,356	5,37
231,619	11,61
231,882	9,54
232,145	13,08
232,408	11,29
232,671	10,7
232,934	10,75
233,197	9,61
233,46	8,98
233,723	10,95
233,986	8,91
234,249	6,64
234,512	8,89
234,775	12,9
235,037	11,24
235,3	12,32
235,563	11,86
235,826	15,21
236,089	16,83
236,351	16,63
236,614	19,54
236,877	20,08
237,14	22,43
237,402	21,79
237,665	14,95
237,928	14,95
238,19	12,12
238,453	15,86
238,716	15,7
238,978	15,3
239,241	14,27
239,503	17,48
239,766	12,77
240,029	11,8
240,291	14,02
240,554	15,05
240,816	14,66
241,079	14,64
241,341	15,48
241,604	15,67
241,866	12,1
242,129	12,8
242,391	14,74
242,653	14,15
242,916	13,42
243,178	14,04
243,441	14,05
243,703	13,27
243,965	9,76
244,228	10,87
244,49	11,49
244,752	11,75
245,015	12,31
245,277	13,86
245,539	13,12
245,801	14,54
246,064	13,97
246,326	13,09
246,588	12,81
246,85	12,9
247,112	12,99
247,374	14,84
247,637	15,77
247,899	15,46
248,161	15,25
248,423	10,61
248,685	9,7
248,947	10,47
249,209	10,59
249,471	10,17
249,733	9,63
249,995	8,78
250,257	8,68
250,519	7,99
250,781	9,25
251,043	6,89
251,305	8,76
251,567	10,84
251,829	11,05
252,091	11,86
252,353	8,33
252,615	7,45
252,876	6,9
253,138	5,12
253,4	1,88
253,662	2,4
253,924	4,69
254,185	6,81
254,447	8,47
254,709	8,76
254,971	10,05
255,232	13,25
255,494	13,27
255,756	10,79
256,017	13,41
256,279	14,88
256,541	14,9
256,802	15,72
257,064	15,63
257,326	13,47
257,587	15,48
257,849	16,73
258,11	20,42
258,372	21,65
258,633	22,5
258,895	21,03
259,156	19,83
259,418	16,6
259,679	11,86
259,941	9,31
260,202	11,28
260,464	13,28
260,725	12,57
260,987	9,53
261,248	9,05
261,509	8,29
261,771	6,48
262,032	8
262,293	7,66
262,555	6,81
262,816	3,97
263,077	2,18
263,338	-1,25
263,6	-1,02
263,861	-1,04
264,122	-4,49
264,383	-3,82
264,645	-1,11
264,906	-2,25
265,167	-0,46
265,428	-0,24
265,689	0,38
265,95	-2,1
266,211	-1,07
266,473	-1,57
266,734	-5,91
266,995	-8,64
267,256	-7,26
267,517	-4,1
267,778	0,11
268,039	1,72
268,3	-0,29
268,561	-2,03
268,822	2,11
269,083	1,85
269,344	0,1
269,604	0,99
269,865	1,35
270,126	-3,19
270,387	-2,86
270,648	-1,84
270,909	-1,65
271,17	-3,02
271,43	-6,5
271,691	-9,48
271,952	-12,04
272,213	-9,22
272,473	-8,95
272,734	-9,05
272,995	-6,56
273,256	-6,81
273,516	-3,5
273,777	-6,22
274,038	-3,66
274,298	-6,64
274,559	-7,26
274,82	-1,67
275,08	2,37
275,341	4,16
275,601	3,14
275,862	0,33
276,122	1,36
276,383	2,78
276,643	3,44
276,904	1,9
277,164	5,25
277,425	6,36
277,685	9,4
277,946	10,73
278,206	11,94
278,467	13,27
278,727	14,6
278,987	14,2
279,248	14,02
279,508	16,48
279,768	18,88
280,029	22,79
280,289	19,92
280,549	16,66
280,81	15,52
281,07	12,97
281,33	13,24
281,59	10,23
281,851	13,65
282,111	13,39
282,371	12,74
282,631	13,62
282,891	12,46
283,151	10,12
283,412	7,39
283,672	6,95
283,932	7,05
284,192	8,16
284,452	6,33
284,712	4,81
284,972	3,49
285,232	0,82
285,492	3,07
285,752	-0,69
286,012	4,96
286,272	7,32
286,532	4,81
286,792	3,67
287,052	6,23
287,312	7,63
287,571	7,33
287,831	8,25
288,091	5,43
288,351	6,29
288,611	11,11
288,871	11,07
289,13	12,21
289,39	7,93
289,65	9,99
289,91	6,84
290,17	8,21
290,429	10,3
290,689	7,59
290,949	4,23
291,208	6,04
291,468	9,5
291,728	10,46
291,987	12,67
292,247	10,08
292,506	13,55
292,766	16,57
293,026	15,23
293,285	16,43
293,545	17,8
293,804	19,07
294,064	14,42
294,323	11,56
294,583	12,94
294,842	12,87
295,102	13,13
295,361	12,15
295,621	12,71
295,88	12,5
296,139	12,3
296,399	12,07
296,658	5,3
296,917	5,54
297,177	2,22
297,436	4,74
297,695	3,33
297,955	5,72
298,214	4,81
298,473	6,15
298,732	9,85
298,992	12,49
299,251	11,49
299,51	7,34
299,769	7,78
300,028	7,8
300,287	8,52
300,547	7,25
300,806	4,56
301,065	8,06
301,324	8,7
301,583	5,15
301,842	1,98
302,101	0,5
302,36	1,05
302,619	-0,81
302,878	0,47
303,137	-2,43
303,396	0,55
303,655	1,48
303,914	-1,15
304,173	-1,54
304,432	-2,55
304,691	1,49
304,95	-0,43
305,208	4,92
305,467	5,43
305,726	3,93
305,985	4,31
306,244	6,85
306,503	6,44
306,761	4,52
307,02	2,6
307,279	2,93
307,537	4,39
307,796	1,04
308,055	-1,58
308,314	-0,9
308,572	-2,39
308,831	-0,42
309,09	-0,15
309,348	1,38
309,607	2,05
309,865	5,52
310,124	4,91
310,382	6,85
310,641	7,92
310,9	5,77
311,158	8,53
311,417	6,66
311,675	7
311,933	8,32
312,192	11,05
312,45	12,8
312,709	13,75
312,967	13,71
313,226	13,06
313,484	11,56
313,742	10,49
314,001	8,79
314,259	4,89
314,517	6,11
314,776	7,83
315,034	9,91
315,292	7,18
315,55	5,43
315,809	5,38
316,067	5,92
316,325	4,81
316,583	6,74
316,841	6,47
317,1	4,3
317,358	0,41
317,616	-1,33
317,874	-2,93
318,132	-2,69
318,39	-3,52
318,648	-5,01
318,906	-3,98
319,164	-6,36
319,422	-7,17
319,68	-8,02
319,938	-8,28
320,196	-8,94
320,454	-8,19
320,712	-9,68
320,97	-9,68
321,228	-11,01
321,486	-8,28
321,744	-4,42
322,002	-2,47
322,26	-2,64
322,517	-3,67
322,775	-6,93
323,033	-7,85
323,291	-3,77
323,549	-2,85
323,806	-0,08
324,064	-0,37
324,322	0,49
324,58	-1,29
324,837	-0,13
325,095	-1,37
325,353	0,85
325,61	4,29
325,868	5,45
326,126	8,46
326,383	7,26
326,641	7,5
326,898	8,15
327,156	7,77
327,413	8,16
327,671	8,65
327,928	10,55
328,186	10,96
328,443	9,31
328,701	12,71
328,958	13,73
329,216	12,81
329,473	10,66
329,731	8,38
329,988	8,37
330,245	10,67
330,503	11,45
330,76	11,98
331,017	14,24
331,275	11,36
331,532	11,16
331,789	8,13
332,047	8,16
332,304	6,26
332,561	6,13
332,818	5,35
333,076	6,22
333,333	6,66
333,59	6,59
333,847	7,64
334,104	6,56
334,361	5,51
334,618	5,28
334,876	4,67
335,133	5,01
335,39	3,95
335,647	5,03
335,904	1,57
336,161	-0,84
336,418	-0,18
336,675	-3,89
336,932	-1,46
337,189	-1,6
337,446	-1,18
337,703	-1,72
337,96	-6,06
338,216	-7,45
338,473	-9,63
338,73	-9,82
338,987	-9,82
339,244	-6,37
339,501	-7,59
339,757	-6,01
340,014	-4,05
340,271	-2,95
340,528	-1,73
340,785	3
341,041	3,74
341,298	1,59
341,555	-0,78
341,811	-2,56
342,068	-6,17
342,325	-5,38
342,581	-2,12
342,838	-2,46
343,094	-1,54
343,351	-2,26
343,608	-5,27
343,864	-3,12
344,121	-2,17
344,377	-2,83
344,634	-3,87
344,89	-6,63
345,147	-5,86
345,403	-6,45
345,66	-6,58
345,916	-3,03
346,172	-3,46
346,429	-4,76
346,685	-5,9
346,942	-6,64
347,198	-11,27
347,454	-10,09
347,711	-9,74
347,967	-13,15
348,223	-11,79
348,48	-12,89
348,736	-11,65
348,992	-12,3
349,248	-9,67
349,504	-8,81
349,761	-8,53
350,017	-7,92
350,273	-7,13
350,529	-8,87
350,785	-9,64
351,041	-11,32
351,297	-8,9
351,554	-10,05
351,81	-12,14
352,066	-13,41
352,322	-13,59
352,578	-12,36
352,834	-13,49
353,09	-14,68
353,346	-14,29
353,602	-14,85
353,858	-17,95
354,114	-18,4
354,369	-17,04
354,625	-15,17
354,881	-16,76
355,137	-13,69
355,393	-13,87
355,649	-13,99
355,905	-13,77
356,16	-14,01
356,416	-13,24
356,672	-20,28
356,928	-19,47
357,183	-21,2
357,439	-21,51
357,695	-22,04
357,951	-17,18
358,206	-17,86
358,462	-17,81
358,718	-17,39
358,973	-15,22
359,229	-15,24
359,484	-13
359,74	-9,68
359,996	-8,08
360,251	-5,25
360,507	-6,33
360,762	-5,08
361,018	-1,45
361,273	-3,65
361,529	-1,74
361,784	-1,08
362,04	0,88
362,295	-0,44
362,55	0,96
362,806	2,63
363,061	2,93
363,316	3,55
363,572	4,86
363,827	6,92
364,082	3
364,338	3,66
364,593	3,82
364,848	3,88
365,104	3,42
365,359	6,7
365,614	6,73
365,869	3,25
366,124	3,96
366,38	4,34
366,635	5,73
366,89	6,95
367,145	6,75
367,4	9,33
367,655	8,97
367,91	10
368,165	7,41
368,42	4,86
368,675	5,17
368,93	4,93
369,185	3,51
369,44	3,84
369,695	7,07
369,95	4,61
370,205	4,96
370,46	4,29
370,715	2,98
370,97	4,2
371,225	4,29
371,48	5,18
371,734	6,7
371,989	9,49
372,244	8,14
372,499	10,25
372,754	10,16
373,008	8,62
373,263	3,97
373,518	6,4
373,773	5,58
374,027	3,4
374,282	3,92
374,537	2,97
374,791	3,56
375,046	2,12
375,301	1,22
375,555	0,04
375,81	1,29
376,064	3,58
376,319	8,32
376,573	7,72
376,828	2,3
377,082	7,89
377,337	6,58
377,591	3,2
377,846	4,56
378,1	6,45
378,355	6,58
378,609	6,37
378,863	2,45
379,118	3,46
379,372	1,01
379,627	-1,15
379,881	-3,5
380,135	-4,06
380,389	-3,12
380,644	-3,24
380,898	-3,27
381,152	-2,31
381,407	-3,56
381,661	-1,38
381,915	1,21
382,169	1,33
382,423	-0,05
382,677	-3,54
382,932	-1,05
383,186	-0,34
383,44	-0,8
383,694	0,13
383,948	-2,19
384,202	-4,92
384,456	-2,88
384,71	0,83
384,964	-1,35
385,218	-0
385,472	0,7
385,726	-0,26
385,98	-0,55
386,234	-0,52
386,488	-2,64
386,742	-0,73
386,996	-2,36
387,249	-0,74
387,503	0,56
387,757	2,81
388,011	4,32
388,265	3,88
388,518	5,41
388,772	8,62
389,026	10,52
389,28	9,24
389,533	7,89
389,787	10,49
390,041	8,62
390,295	9,55
390,548	9,09
390,802	10,27
391,055	8,95
391,309	8,31
391,563	6,08
391,816	6,62
392,07	7,04
392,323	7,55
392,577	6,61
392,83	7,5
393,084	12,71
393,337	15,86
393,591	17,91
393,844	18,08
394,098	21,64
394,351	25,91
394,604	26,74
394,858	28,54
395,111	29,35
395,364	26,99
395,618	28,58
395,871	26,78
396,124	25,48
396,378	24,5
396,631	23,76
396,884	19,79
397,137	18,16
397,391	18,31
397,644	14,46
397,897	14,75
398,15	16,86
398,403	19,71
398,657	17,12
398,91	16,38
399,163	18,56
399,416	18,98
399,669	16,84
399,922	14,83
400,175	12,3
400,428	13,75
400,681	13,71
400,934	9,83
401,187	9,21
401,44	8,89
401,693	7,96
401,946	3,16
402,199	-1,85
402,452	-2,7
402,704	-5,41
402,957	-7,2
403,21	-5,3
403,463	-6,55
403,716	-6,47
403,969	-5,13
404,221	-6,78
404,474	-5,32
404,727	-0,62
404,98	2,19
405,232	2,53
405,485	3,94
405,738	6,95
405,99	6,46
406,243	7,54
406,496	10,65
406,748	9,51
407,001	7,42
407,253	6,98
407,506	8,85
407,759	11,24
408,011	8,8
408,264	8,41
408,516	9,35
408,769	5,06
409,021	6,01
409,274	5,41
409,526	6,31
409,778	6,23
410,031	9,41
410,283	9,91
410,536	14,86
410,788	13,9
411,04	12,91
411,293	13,87
411,545	14,35
411,797	13,2
412,049	13,47
412,302	14,53
412,554	14,05
412,806	13,41
413,058	12,44
413,311	13,21
413,563	11,75
413,815	11,25
414,067	7,42
414,319	6,17
414,571	7,57
414,823	5,71
415,075	4,93
415,328	4,04
415,58	7,08
415,832	8,78
416,084	9,81
416,336	7,25
416,588	13,56
416,84	11,17
417,091	14,13
417,343	12,14
417,595	14,2
417,847	14,58
418,099	15,47
418,351	13,66
418,603	15,98
418,855	17,65
419,106	18,19
419,358	19,31
419,61	18,98
419,862	19,83
420,114	17,35
420,365	18,37
420,617	18,68
420,869	16,51
421,12	15,21
421,372	16,35
421,624	15,31
421,875	17,89
422,127	15,17
422,379	15,91
422,63	20,28
422,882	19,1
423,133	19,51
423,385	18,2
423,636	20,04
423,888	20,94
424,139	23,31
424,391	19,56
424,642	18,96
424,894	18,07
425,145	18,04
425,396	15,5
425,648	17,57
425,899	15,47
426,151	16,19
426,402	14,96
426,653	14,34
426,905	13,7
427,156	12,29
427,407	12,44
427,658	12,22
427,91	11,32
428,161	9,64
428,412	11,78
428,663	14,43
428,914	15,6
429,166	15,75
429,417	16,66
429,668	15,16
429,919	12,97
430,17	11,95
430,421	10,36
430,672	14,21
430,923	14,01
431,174	13,8
431,425	13,89
431,676	11,91
431,927	10,12
432,178	11,13
432,429	11,51
432,68	10,87
432,931	14,35
433,182	17,63
433,433	16,57
433,683	17,79
433,934	16,55
434,185	15,52
434,436	14,48
434,687	15,59
434,937	17,71
435,188	17,1
435,439	16,73
435,69	16,09
435,94	17,39
436,191	16,39
436,442	16,15
436,692	15,41
436,943	13,65
437,194	12,87
437,444	15,4
437,695	20,71
437,945	21,33
438,196	20,58
438,447	18,9
438,697	20,6
438,948	19,33
439,198	17,42
439,449	14,97
439,699	14,45
439,949	15,01
440,2	13,87
440,45	15,32
440,701	14,2
440,951	12,42
441,201	11,99
441,452	11,26
441,702	11,19
441,952	12,69
442,203	13,55
442,453	12,09
442,703	13,91
442,953	14,71
443,204	15,97
443,454	15,74
443,704	14,86
443,954	12,89
444,204	13,94
444,455	15,87
444,705	17,22
444,955	17,83
445,205	17,17
445,455	14,98
445,705	15,28
445,955	16,9
446,205	16,5
446,455	16,85
446,705	19,02
446,955	19,58
447,205	22,86
447,455	26,32
447,705	23,39
447,955	23,48
448,205	23,96
448,454	23,81
448,704	26,99
448,954	26,81
449,204	28,24
449,454	29,15
449,704	27,82
449,953	27,21
450,203	29,84
450,453	26,42
450,703	28,32
450,952	28,12
451,202	30,98
451,452	30,64
451,701	35,15
451,951	38,44
452,201	37,79
452,45	36,48
452,7	38,01
452,949	38,07
453,199	38,17
453,448	40
453,698	40,83
453,947	40,92
454,197	40,29
454,446	39,59
454,696	43,71
454,945	42,71
455,195	40,84
455,444	44,22
455,693	47,77
455,943	46,37
456,192	47,75
456,442	47,53
456,691	48,51
456,94	47,9
457,189	46,94
457,439	49,26
457,688	51,35
457,937	49,58
458,186	51,32
458,436	51,89
458,685	53,23
458,934	52,79
459,183	53,82
459,432	54,27
459,681	53,93
459,93	52,59
460,179	52,66
460,429	50,2
460,678	53,5
460,927	56,4
461,176	54,9
461,425	55,66
461,674	56,62
461,923	56,06
462,172	54,14
462,42	52,24
462,669	54,28
462,918	52,87
463,167	51,83
463,416	48,84
463,665	49,34
463,914	49,3
464,162	46,44
464,411	45,47
464,66	46,23
464,909	44,48
465,158	44,22
465,406	44,83
465,655	46,21
465,904	47,06
466,152	46,02
466,401	46,53
466,65	47,25
466,898	44,62
467,147	41,84
467,395	41,94
467,644	45
467,893	45,55
468,141	45,09
468,39	40,81
468,638	37,99
468,887	36,39
469,135	34,41
469,384	34,92
469,632	35,97
469,88	35,66
470,129	37,35
470,377	35,29
470,626	38,73
470,874	40,38
471,122	40,43
471,371	37,55
471,619	35,71
471,867	38,59
472,115	38,61
472,364	37,46
472,612	40,28
472,86	38,69
473,108	36,89
473,356	37,12
473,605	36,78
473,853	35,06
474,101	33,45
474,349	31,86
474,597	35,41
474,845	34,16
475,093	31,3
475,341	27,16
475,589	26,42
475,837	28,1
476,085	30,46
476,333	28,18
476,581	29,96
476,829	28,66
477,077	31,21
477,325	30,23
477,573	31,93
477,821	28,11
478,069	28,32
478,317	27,8
478,564	29,22
478,812	29,72
479,06	29,81
479,308	28,8
479,555	28,61
479,803	26,65
480,051	28,34
480,299	27,87
480,546	28,59
480,794	27,06
481,042	26,32
481,289	25,04
481,537	25,53
481,784	24,06
482,032	27,36
482,28	25,58
482,527	24,39
482,775	26,34
483,022	28,09
483,27	30,51
483,517	33,32
483,765	32,47
484,012	33,22
484,259	31,98
484,507	34,72
484,754	33,52
485,002	33,38
485,249	32,91
485,496	37,66
485,744	36,5
485,991	35,53
486,238	35,01
486,486	37,73
486,733	38,85
486,98	41,5
487,227	40,36
487,474	43,74
487,722	45,18
487,969	43,28
488,216	42,96
488,463	44,89
488,71	44,65
488,957	43,84
489,204	45,14
489,451	46,77
489,699	45,96
489,946	42,97
490,193	43,42
490,44	42,53
490,687	43,69
490,934	40,78
491,18	37,13
491,427	37,53
491,674	41,37
491,921	42,38
492,168	42,55
492,415	40,77
492,662	42,28
492,909	43,04
493,155	40,48
493,402	40,17
493,649	38,89
493,896	38,81
494,142	33,91
494,389	34,12
494,636	32,16
494,883	30,7
495,129	29,52
495,376	28,06
495,623	30,65
495,869	32,52
496,116	33,91
496,362	35,02
496,609	38,69
496,855	42,98
497,102	42,18
497,348	41,48
497,595	44,78
497,841	48,21
498,088	46,37
498,334	45,76
498,581	44,38
498,827	44,72
499,074	46,88
499,32	46,65
499,566	48,8
499,813	47,91
500,059	47,39
500,305	47,21
500,552	47,95
500,798	48,28
501,044	52,76
501,29	51,18
501,537	48,11
501,783	51,26
502,029	54,66
502,275	53,09
502,521	51,9
502,767	52,24
503,013	54,15
503,26	51,53
503,506	49,12
503,752	49,36
503,998	46,41
504,244	46,92
504,49	43,25
504,736	44,69
504,982	43,92
505,228	45,77
505,474	45,78
505,72	47,92
505,966	46,91
506,211	51,18
506,457	51,77
506,703	47,16
506,949	46,1
507,195	44,88
507,441	42
507,686	43,91
507,932	43,45
508,178	44,52
508,424	43,51
508,669	41,38
508,915	42,86
509,161	46,22
509,406	47,77
509,652	46,4
509,898	51,06
510,143	52,41
510,389	51,52
510,634	48,14
510,88	50,54
511,125	53,34
511,371	54,07
511,616	56,34
511,862	52,91
512,107	50,58
512,353	51,76
512,598	51,7
512,844	49,94
513,089	48,32
513,335	48,45
513,58	49,02
513,825	48,51
514,071	47,25
514,316	47,97
514,561	49,27
514,806	47,84
515,052	51,03
515,297	50,05
515,542	51,87
515,787	52,6
516,033	55,55
516,278	54,83
516,523	54,2
516,768	53,28
517,013	50,12
517,258	49,52
517,503	46,38
517,748	46,5
517,993	46,35
518,238	46,39
518,483	45,75
518,728	44,59
518,973	43,05
519,218	42,98
519,463	45,29
519,708	44,89
519,953	43,24
520,198	44,5
520,443	47,25
520,688	51
520,933	50,35
521,177	50,27
521,422	49,48
521,667	54,15
521,912	54,11
522,157	50,87
522,401	52,9
522,646	52,29
522,891	53,61
523,135	54
523,38	53,64
523,625	49,77
523,869	52,91
524,114	56,26
524,358	55,23
524,603	55,5
524,848	52,36
525,092	53,82
525,337	55,19
525,581	57,89
525,826	60,58
526,07	60,64
526,315	62,66
526,559	61,54
526,803	60,66
527,048	63,25
527,292	64,86
527,537	65,85
527,781	64,49
528,025	60,75
528,269	61,31
528,514	61,36
528,758	59,88
529,002	59,26
529,247	60,51
529,491	61,53
529,735	66,57
529,979	66,92
530,223	68,78
530,467	65,83
530,712	63,32
530,956	62,27
531,2	64,15
531,444	61,19
531,688	60,59
531,932	60,18
532,176	63,26
532,42	65,06
532,664	66,35
532,908	65,45
533,152	62,86
533,396	62,03
533,64	61,91
533,884	58,44
534,128	58,01
534,371	60,45
534,615	61,17
534,859	59,99
535,103	58,66
535,347	59,31
535,59	60,71
535,834	55,33
536,078	57,56
536,322	59,95
536,565	62,7
536,809	61,04
537,053	61,89
537,296	58,78
537,54	59,25
537,784	58,64
538,027	60,07
538,271	59,51
538,514	58,11
538,758	58,66
539,001	57,04
539,245	56,37
539,488	57,86
539,732	58,59
539,975	60
540,219	60,8
540,462	60,94
540,706	63,32
540,949	63,5
541,192	66,06
541,436	72,71
541,679	78,13
541,922	76,39
542,166	71,83
542,409	72,14
542,652	72,67
542,895	74,86
543,139	75,65
543,382	81,88
543,625	80,89
543,868	80,49
544,111	79,64
544,354	77,71
544,598	77,33
544,841	79,63
545,084	78,64
545,327	78,18
545,57	79,34
545,813	81,8
546,056	82,47
546,299	82,22
546,542	84,58
546,785	88,1
547,028	87,45
547,271	85,43
547,514	84,45
547,756	82,69
547,999	83,15
548,242	84,33
548,485	82,15
548,728	80,55
548,971	75,21
549,213	74,89
549,456	75,5
549,699	74,89
549,942	75,2
550,184	75,09
550,427	73,59
550,67	73,46
550,912	67,35
551,155	68,97
551,398	69,38
551,64	68,99
551,883	70,46
552,125	69,34
552,368	68,97
552,61	66,06
552,853	68,35
553,095	67,15
553,338	67,25
553,58	68,24
553,823	67,28
554,065	69,8
554,308	65,54
554,55	64,4
554,792	61,75
555,035	60,7
555,277	59,58
555,519	60,29
555,762	57,37
556,004	57,78
556,246	53,67
556,488	53,9
556,731	51,18
556,973	52,26
557,215	53,05
557,457	54,82
557,699	56,58
557,941	54,04
558,183	53,28
558,426	57,52
558,668	54,42
558,91	54,96
559,152	54,12
559,394	52,83
559,636	54,6
559,878	55,64
560,12	54,71
560,362	54,74
560,604	54,63
560,845	53,48
