Data from led_4000k_2_FLMT021711__9__17-33-24-057.txt Node

Date: Tue Nov 05 17:33:24 CET 2024
User: Etudiants TP
Spectrometer: FLMT02171
Trigger mode: 0
Integration Time (sec): 1,000000E-1
Scans to average: 5
Electric dark correction enabled: true
Nonlinearity correction enabled: true
Boxcar width: 15
XAxis mode: Wavelengths
Number of Pixels in Spectrum: 3648
>>>>>Begin Spectral Data<<<<<
194,658	-70,09
194,923	-66,12
195,188	-59,55
195,453	-57,48
195,717	-52,06
195,982	-51,79
196,247	-49,82
196,512	-51,16
196,777	-48,86
197,042	-46,26
197,307	-45,61
197,572	-39,86
197,837	-39,35
198,101	-35,41
198,366	-32,69
198,631	-30,48
198,896	-24,02
199,161	-15,8
199,425	-7,96
199,69	1,5
199,955	0,63
200,22	-2,24
200,484	-3,69
200,749	-3,68
201,014	-1,88
201,278	-1,31
201,543	0,53
201,807	-0,47
202,072	1,26
202,337	2,08
202,601	0,83
202,866	-1,84
203,13	-2,35
203,395	-4,52
203,659	-5,06
203,924	-6,39
204,189	-4
204,453	-2,12
204,717	0,21
204,982	1,21
205,246	2,08
205,511	3,64
205,775	1,86
206,04	6,1
206,304	4,04
206,568	5,66
206,833	4,97
207,097	5,51
207,361	6,99
207,626	11,69
207,89	13,49
208,154	13,74
208,419	16,73
208,683	18,39
208,947	21,2
209,211	20,41
209,476	20,59
209,74	21,2
210,004	21,94
210,268	22,12
210,532	24,72
210,796	25,1
211,061	27,1
211,325	28,04
211,589	27,37
211,853	29,24
212,117	30,02
212,381	29,9
212,645	30,19
212,909	29,25
213,173	26,62
213,437	27,1
213,701	27,65
213,965	28,29
214,229	24,22
214,493	25,1
214,757	24,28
215,021	25,15
215,285	30,68
215,549	33,31
215,813	29,44
216,077	28,89
216,34	31,05
216,604	28,37
216,868	27,47
217,132	28,14
217,396	27,14
217,659	28,42
217,923	22,99
218,187	23,68
218,451	23,62
218,714	20,18
218,978	21,19
219,242	22,57
219,505	24,19
219,769	26,06
220,033	25,55
220,296	26,07
220,56	26,64
220,824	23,97
221,087	25,15
221,351	25,92
221,614	25,3
221,878	26,26
222,142	24,27
222,405	23,88
222,669	25,81
222,932	21,2
223,196	17,87
223,459	13,21
223,722	14,14
223,986	13,25
224,249	10,96
224,513	10,84
224,776	12,48
225,04	14,17
225,303	12,09
225,566	12,46
225,83	12,26
226,093	16,69
226,356	13,51
226,62	11,56
226,883	13,86
227,146	13,28
227,409	13,04
227,673	10,28
227,936	8,9
228,199	9,13
228,462	7
228,725	6,17
228,989	6,03
229,252	6,63
229,515	11,28
229,778	9,91
230,041	8,58
230,304	6,01
230,567	7,55
230,83	4,75
231,093	7,96
231,356	8,8
231,619	15,01
231,882	12,77
232,145	15,45
232,408	14,66
232,671	15,75
232,934	14,3
233,197	11,52
233,46	10,9
233,723	11,93
233,986	10,3
234,249	7,44
234,512	9,28
234,775	12,98
235,037	11,43
235,3	12,13
235,563	12,18
235,826	13,44
236,089	15,73
236,351	14,72
236,614	17,09
236,877	16,83
237,14	18,65
237,402	18,68
237,665	11,57
237,928	11,12
238,19	9,58
238,453	12,3
238,716	11,33
238,978	11,33
239,241	9,87
239,503	13,36
239,766	9,12
240,029	6,89
240,291	9,87
240,554	11,27
240,816	8,6
241,079	10,85
241,341	9,22
241,604	8,86
241,866	6,23
242,129	8,18
242,391	10,77
242,653	11
242,916	10,21
243,178	10,28
243,441	10,89
243,703	9,94
243,965	8,02
244,228	8,11
244,49	8,73
244,752	9,48
245,015	11,11
245,277	14,07
245,539	12,14
245,801	15,25
246,064	14,39
246,326	13,37
246,588	14,14
246,85	17,46
247,112	18,52
247,374	21,32
247,637	22,93
247,899	22,05
248,161	23,29
248,423	18,01
248,685	18,01
248,947	18,82
249,209	18,09
249,471	21,85
249,733	22,8
249,995	21,89
250,257	21,39
250,519	19,97
250,781	21,69
251,043	19,74
251,305	21,24
251,567	23,41
251,829	23,51
252,091	23,29
252,353	19,85
252,615	19,01
252,876	16,97
253,138	15,12
253,4	10,31
253,662	11,56
253,924	12,87
254,185	15,35
254,447	15,95
254,709	16,36
254,971	16,21
255,232	18,88
255,494	15,99
255,756	12,75
256,017	14,81
256,279	14,4
256,541	14,5
256,802	13,83
257,064	14,83
257,326	12,9
257,587	12,31
257,849	13,27
258,11	17,45
258,372	18,22
258,633	18,83
258,895	18,17
259,156	17,26
259,418	15,76
259,679	10,24
259,941	9,05
260,202	12,1
260,464	13,61
260,725	13,51
260,987	12,6
261,248	11,18
261,509	12,35
261,771	12,27
262,032	13,5
262,293	12,76
262,555	13,06
262,816	10,29
263,077	8,01
263,338	3,95
263,6	5,34
263,861	5,82
264,122	3,56
264,383	6,15
264,645	7,67
264,906	6,08
265,167	5,4
265,428	5,37
265,689	6,53
265,95	3,59
266,211	4,32
266,473	3,38
266,734	0,25
266,995	-3,21
267,256	-1,53
267,517	0,2
267,778	5,43
268,039	6,41
268,3	4,9
268,561	2,46
268,822	5,85
269,083	4,42
269,344	3,64
269,604	2,38
269,865	2,16
270,126	-1,38
270,387	0,38
270,648	1,19
270,909	1,17
271,17	-0,68
271,43	-3,68
271,691	-5,61
271,952	-7,38
272,213	-4,62
272,473	-7,31
272,734	-5,35
272,995	-2,97
273,256	-1,89
273,516	0,66
273,777	-2,3
274,038	-0,11
274,298	-3,45
274,559	-3,59
274,82	0,85
275,08	3,13
275,341	4,22
275,601	3,24
275,862	-0,9
276,122	-1,05
276,383	-1,2
276,643	1,61
276,904	-0,03
277,164	3,88
277,425	4,99
277,685	9,65
277,946	9,22
278,206	10,45
278,467	11,2
278,727	11,19
278,987	11,21
279,248	12,1
279,508	15,46
279,768	17,24
280,029	19,85
280,289	16,2
280,549	15,95
280,81	15,05
281,07	13,5
281,33	15,1
281,59	13,4
281,851	16,28
282,111	16,29
282,371	16,02
282,631	17,79
282,891	17,57
283,151	16,27
283,412	13,25
283,672	13,58
283,932	15,06
284,192	16,59
284,452	15,34
284,712	12,2
284,972	11,46
285,232	8,62
285,492	10,45
285,752	6,04
286,012	13,37
286,272	15,17
286,532	12,3
286,792	12,51
287,052	14,51
287,312	13,78
287,571	12,93
287,831	14,24
288,091	10,98
288,351	11,67
288,611	15,81
288,871	15,33
289,13	15,98
289,39	11,81
289,65	13,79
289,91	10,63
290,17	14
290,429	16,36
290,689	14,16
290,949	10,61
291,208	12,69
291,468	16,84
291,728	16,37
291,987	17,61
292,247	15,79
292,506	19,28
292,766	22,66
293,026	21,47
293,285	22,91
293,545	25,6
293,804	27,48
294,064	22,64
294,323	20,38
294,583	20,38
294,842	20,64
295,102	21,96
295,361	22,87
295,621	23,97
295,88	23,47
296,139	23,37
296,399	23,15
296,658	18,08
296,917	18,22
297,177	14,88
297,436	16,52
297,695	13,9
297,955	16,37
298,214	14,23
298,473	16,37
298,732	18,22
298,992	21,56
299,251	20,71
299,51	16,45
299,769	17,77
300,028	17,76
300,287	18,12
300,547	16,58
300,806	13,65
301,065	15,95
301,324	17,82
301,583	13,9
301,842	9,76
302,101	8,3
302,36	8,93
302,619	8,95
302,878	10,01
303,137	6,24
303,396	8,43
303,655	9,27
303,914	7,31
304,173	7,92
304,432	8,61
304,691	11,41
304,95	8,9
305,208	14,08
305,467	13,81
305,726	13,57
305,985	14,65
306,244	15,63
306,503	13,18
306,761	10,89
307,02	7,23
307,279	6,89
307,537	8,52
307,796	6,45
308,055	3,76
308,314	5,4
308,572	4,56
308,831	6,77
309,09	7,47
309,348	8,03
309,607	7,72
309,865	11,76
310,124	11,44
310,382	12,45
310,641	13,2
310,9	10,52
311,158	11,66
311,417	10,74
311,675	10,77
311,933	10,96
312,192	11,9
312,45	11,56
312,709	11,73
312,967	10,6
313,226	10,13
313,484	9,05
313,742	7,27
314,001	5,23
314,259	3,42
314,517	4,98
314,776	7,19
315,034	10,18
315,292	8,33
315,55	5,5
315,809	3,72
316,067	4,99
316,325	2,98
316,583	2,94
316,841	1,46
317,1	-1,44
317,358	-5,06
317,616	-6,71
317,874	-7,86
318,132	-8,44
318,39	-9,07
318,648	-9,45
318,906	-8,25
319,164	-8,3
319,422	-9,48
319,68	-11,06
319,938	-11,18
320,196	-12,67
320,454	-11,73
320,712	-13,74
320,97	-11,86
321,228	-13,82
321,486	-11,08
321,744	-9,23
322,002	-7,6
322,26	-9,6
322,517	-10,11
322,775	-12,32
323,033	-13,8
323,291	-10,78
323,549	-8,35
323,806	-5,98
324,064	-5,57
324,322	-3,21
324,58	-2,35
324,837	0,48
325,095	-0,73
325,353	0,67
325,61	3
325,868	2,41
326,126	4,75
326,383	3,45
326,641	2,2
326,898	3,95
327,156	3,27
327,413	3,88
327,671	3,59
327,928	6,95
328,186	8,5
328,443	7,48
328,701	12,85
328,958	12,75
329,216	13,43
329,473	11,27
329,731	11,79
329,988	11,19
330,245	14,32
330,503	14,75
330,76	14,02
331,017	16,49
331,275	14,51
331,532	14,76
331,789	13,43
332,047	13,87
332,304	10,41
332,561	9,92
332,818	8,52
333,076	11,54
333,333	13,32
333,59	12,75
333,847	14,2
334,104	12,13
334,361	11,7
334,618	11,36
334,876	8,58
335,133	8,97
335,39	7,12
335,647	9,42
335,904	4,72
336,161	2,27
336,418	2,68
336,675	-2,67
336,932	-0,84
337,189	-2,12
337,446	-1,27
337,703	-2,53
337,96	-5,48
338,216	-4,8
338,473	-6,53
338,73	-4,08
338,987	-4,94
339,244	-1,54
339,501	-4,16
339,757	-2,73
340,014	-3,89
340,271	-2,8
340,528	-2,8
340,785	0,77
341,041	0,78
341,298	-1,65
341,555	-0,49
341,811	-1,07
342,068	-2,02
342,325	-1,44
342,581	1,96
342,838	3,65
343,094	3,37
343,351	4,66
343,608	1,9
343,864	4,56
344,121	6,83
344,377	6,4
344,634	6,14
344,89	4,81
345,147	5,18
345,403	3,67
345,66	4,85
345,916	6,49
346,172	3,71
346,429	1,73
346,685	-0,64
346,942	-0,96
347,198	-5,46
347,454	-3,51
347,711	-4,2
347,967	-6,1
348,223	-4,76
348,48	-4,23
348,736	-0,5
348,992	-1,56
349,248	0,16
349,504	0,69
349,761	1,3
350,017	1,01
350,273	0,61
350,529	-2,97
350,785	-2,77
351,041	-3,22
351,297	-2,28
351,554	-3,93
351,81	-7,66
352,066	-8,83
352,322	-8,75
352,578	-6,66
352,834	-7,65
353,09	-7,44
353,346	-6,68
353,602	-8,68
353,858	-8,21
354,114	-9,73
354,369	-7,95
354,625	-5,14
354,881	-6,39
355,137	-2,62
355,393	-2,34
355,649	-2,17
355,905	-1,12
356,16	-1,76
356,416	-0,86
356,672	-9,53
356,928	-8,93
357,183	-10,4
357,439	-11,3
357,695	-13,64
357,951	-8,45
358,206	-8,89
358,462	-7,83
358,718	-9,9
358,973	-7,77
359,229	-7,18
359,484	-6,05
359,74	-2,28
359,996	-2,53
360,251	0,67
360,507	-0,35
360,762	0,02
361,018	1,26
361,273	-1,3
361,529	2,13
361,784	0,77
362,04	3,7
362,295	2,99
362,55	2,83
362,806	5,92
363,061	4,25
363,316	4,18
363,572	5,15
363,827	6,68
364,082	3,87
364,338	3,04
364,593	4,76
364,848	5,06
365,104	3,76
365,359	6,3
365,614	8,24
365,869	6,01
366,124	6,12
366,38	5,79
366,635	7,81
366,89	8,45
367,145	6,98
367,4	10,67
367,655	10,99
367,91	12,4
368,165	10
368,42	5,74
368,675	6,79
368,93	7,37
369,185	6,11
369,44	5,28
369,695	8,32
369,95	6,73
370,205	6
370,46	5,24
370,715	4,55
370,97	7,23
371,225	7,79
371,48	8,8
371,734	9,48
371,989	12,15
372,244	11,71
372,499	13,11
372,754	10,96
373,008	9,08
373,263	4,61
373,518	6,45
373,773	2,94
374,027	2,78
374,282	4,74
374,537	5,34
374,791	5,53
375,046	4,74
375,301	2,76
375,555	2,12
375,81	2,97
376,064	3,89
376,319	8,33
376,573	7,16
376,828	4,61
377,082	10,06
377,337	7,27
377,591	4,37
377,846	5,14
378,1	8,4
378,355	9,08
378,609	7,72
378,863	5,29
379,118	6,32
379,372	4,48
379,627	3,13
379,881	0,72
380,135	1,31
380,389	1,97
380,644	2,55
380,898	4,94
381,152	5,75
381,407	5,48
381,661	8,77
381,915	10,59
382,169	10,73
382,423	8,26
382,677	5,43
382,932	7
383,186	8,32
383,44	7,58
383,694	10,3
383,948	8,82
384,202	8,28
384,456	11,12
384,71	13,43
384,964	11,06
385,218	12,97
385,472	14,32
385,726	13,86
385,98	12,94
386,234	11,59
386,488	8,26
386,742	8,18
386,996	6,31
387,249	7,42
387,503	8,49
387,757	11,06
388,011	11,36
388,265	10,04
388,518	12,38
388,772	12,3
389,026	14,12
389,28	10,8
389,533	8,51
389,787	10,09
390,041	8,3
390,295	8,81
390,548	9,92
390,802	11,27
391,055	9,94
391,309	9,81
391,563	8,21
391,816	9,44
392,07	8,43
392,323	8,9
392,577	8,85
392,83	10,94
393,084	17,83
393,337	21,48
393,591	22,98
393,844	24,29
394,098	28,66
394,351	34,39
394,604	36,53
394,858	37,63
395,111	38,98
395,364	37,45
395,618	37,34
395,871	35,6
396,124	34,64
396,378	33,46
396,631	34,05
396,884	31,61
397,137	32,17
397,391	33,3
397,644	30,28
397,897	29,96
398,15	30,71
398,403	32,58
398,657	31,92
398,91	30,81
399,163	31,48
399,416	30,29
399,669	29,18
399,922	28,08
400,175	24,8
400,428	24,35
400,681	24,02
400,934	17,77
401,187	16,39
401,44	15,32
401,693	13,04
401,946	8,32
402,199	2,76
402,452	1,23
402,704	-3,07
402,957	-5,46
403,21	-3,75
403,463	-3,47
403,716	-2,93
403,969	-0,79
404,221	-1,38
404,474	0,92
404,727	4,07
404,98	6,17
405,232	7,05
405,485	8,19
405,738	9,43
405,99	10,09
406,243	10,73
406,496	12,36
406,748	12,75
407,001	11,47
407,253	10,43
407,506	10,02
407,759	10,81
408,011	9,62
408,264	9,94
408,516	9,78
408,769	7
409,021	6,93
409,274	6,19
409,526	8,01
409,778	7,93
410,031	10,75
410,283	10,81
410,536	17,39
410,788	16,08
411,04	15,88
411,293	17,15
411,545	19,05
411,797	18,04
412,049	18,08
412,302	17,56
412,554	18,79
412,806	16,62
413,058	15,2
413,311	16,86
413,563	17,17
413,815	17,06
414,067	15,19
414,319	14,44
414,571	14,39
414,823	13,19
415,075	12,39
415,328	13,44
415,58	16,82
415,832	18,21
416,084	18,07
416,336	16,37
416,588	22,2
416,84	20,07
417,091	24,28
417,343	21,56
417,595	23,61
417,847	24,86
418,099	24,79
418,351	23,67
418,603	26,63
418,855	26,82
419,106	26,62
419,358	25,71
419,61	25,54
419,862	26,95
420,114	24,74
420,365	23,54
420,617	24,91
420,869	22,4
421,12	21,05
421,372	21,55
421,624	20,01
421,875	20,58
422,127	17,62
422,379	19,22
422,63	22,77
422,882	21,83
423,133	21,03
423,385	20,92
423,636	21,74
423,888	24,44
424,139	28,03
424,391	23,88
424,642	23,1
424,894	21,53
425,145	22,45
425,396	19,4
425,648	22,86
425,899	21,11
426,151	20,83
426,402	19,82
426,653	20,72
426,905	19,67
427,156	17,26
427,407	17,06
427,658	16,66
427,91	16,16
428,161	15,03
428,412	15,9
428,663	18,2
428,914	19,39
429,166	19,64
429,417	20,33
429,668	18,89
429,919	16,69
430,17	14,83
430,421	13,91
430,672	17,53
430,923	18,42
431,174	16,76
431,425	16,13
431,676	14,74
431,927	10,47
432,178	13,07
432,429	14,54
432,68	12,58
432,931	14,67
433,182	18,39
433,433	13,6
433,683	16,1
433,934	15,36
434,185	14,28
434,436	11,33
434,687	12,08
434,937	13,7
435,188	12,37
435,439	11,49
435,69	13,8
435,94	13,94
436,191	14,25
436,442	14,21
436,692	12,88
436,943	11,86
437,194	11,11
437,444	13,01
437,695	19,04
437,945	19,56
438,196	17,79
438,447	16,59
438,697	16,51
438,948	14,74
439,198	14,09
439,449	9,88
439,699	11,19
439,949	9,73
440,2	8,38
440,45	10,46
440,701	10,28
440,951	9,85
441,201	11,79
441,452	10,11
441,702	9,5
441,952	9,99
442,203	10,81
442,453	8,92
442,703	10,37
442,953	11,58
443,204	12,72
443,454	9,85
443,704	9,61
443,954	6,48
444,204	7,38
444,455	8,33
444,705	9,24
444,955	9,36
445,205	8,69
445,455	3,88
445,705	4,79
445,955	5,89
446,205	6,22
446,455	7,17
446,705	8,92
446,955	8,5
447,205	10,02
447,455	12,64
447,705	11,76
447,955	10,07
448,205	9,22
448,454	7,23
448,704	8,13
448,954	6,59
449,204	6,96
449,454	7,65
449,704	7,03
449,953	6,55
450,203	9,1
450,453	6,82
450,703	8,53
450,952	7,35
451,202	9,2
451,452	8,82
451,701	11,27
451,951	14,96
452,201	13,65
452,45	12,83
452,7	14,59
452,949	13,9
453,199	15,2
453,448	17,72
453,698	18,5
453,947	16,88
454,197	15,29
454,446	14,12
454,696	18
454,945	18,13
455,195	15,64
455,444	16,21
455,693	21,16
455,943	19,13
456,192	21,74
456,442	20,46
456,691	20,98
456,94	21,2
457,189	20,37
457,439	22,16
457,688	24,78
457,937	23,91
458,186	25,06
458,436	24,67
458,685	25,69
458,934	24,42
459,183	25,19
459,432	28,81
459,681	28,57
459,93	29,21
460,179	28,7
460,429	26,76
460,678	29,87
460,927	32,01
461,176	30,58
461,425	30,65
461,674	34,21
461,923	33,89
462,172	34,21
462,42	31,81
462,669	34,61
462,918	34,49
463,167	34,25
463,416	31,02
463,665	32,99
463,914	32,28
464,162	31,07
464,411	31,54
464,66	33,19
464,909	32,18
465,158	32,1
465,406	31,84
465,655	33,29
465,904	34,71
466,152	35,48
466,401	35,32
466,65	38,07
466,898	35,42
467,147	30,71
467,395	29,84
467,644	31,32
467,893	31,16
468,141	31,88
468,39	28,64
468,638	26,66
468,887	25,08
469,135	24,71
469,384	23
469,632	23,37
469,88	22,41
470,129	24,59
470,377	21,33
470,626	23,48
470,874	25,1
471,122	28,43
471,371	27,3
471,619	25,45
471,867	28,48
472,115	28,64
472,364	26,08
472,612	28,35
472,86	26,2
473,108	25,89
473,356	26,06
473,605	26,17
473,853	23,07
474,101	22,43
474,349	19,67
474,597	23,37
474,845	23,82
475,093	21,82
475,341	20,72
475,589	19,78
475,837	20,34
476,085	21,46
476,333	20,06
476,581	20,98
476,829	20,34
477,077	22,33
477,325	22,65
477,573	24,34
477,821	22,5
478,069	24,4
478,317	25,18
478,564	27,19
478,812	23,02
479,06	21,6
479,308	20,29
479,555	20,01
479,803	18,72
480,051	20,66
480,299	20,27
480,546	22,3
480,794	19,79
481,042	19,19
481,289	17,17
481,537	18,69
481,784	17,98
482,032	21,56
482,28	20,09
482,527	18,16
482,775	19,02
483,022	19,37
483,27	21,53
483,517	25
483,765	24,81
484,012	24,8
484,259	22,78
484,507	26,37
484,754	27,68
485,002	27,95
485,249	26,87
485,496	29,8
485,744	27,6
485,991	25,63
486,238	23,79
486,486	28,49
486,733	30,91
486,98	34,97
487,227	33,76
487,474	36,02
487,722	38,69
487,969	37,15
488,216	36,76
488,463	37,93
488,71	36,79
488,957	35,45
489,204	34,53
489,451	35,31
489,699	34,79
489,946	33,32
490,193	33,69
490,44	32,98
490,687	33,58
490,934	32,24
491,18	26,79
491,427	28,26
491,674	31,33
491,921	31,31
492,168	28,59
492,415	25,8
492,662	25,8
492,909	28,92
493,155	27,88
493,402	27,7
493,649	26,44
493,896	26,97
494,142	21,23
494,389	20,3
494,636	18,21
494,883	15,41
495,129	12,83
495,376	9,28
495,623	12,8
495,869	14,94
496,116	15,55
496,362	17,35
496,609	21,41
496,855	27,02
497,102	27,32
497,348	26,08
497,595	26,45
497,841	30,78
498,088	28,72
498,334	27,69
498,581	26,47
498,827	27,86
499,074	28,2
499,32	29,06
499,566	33,1
499,813	33,21
500,059	32,18
500,305	33,72
500,552	30,61
500,798	28,92
501,044	32,76
501,29	31,14
501,537	28,13
501,783	31,76
502,029	35,46
502,275	33,7
502,521	33,75
502,767	35,07
503,013	38,13
503,26	33,67
503,506	30,19
503,752	31,06
503,998	29,3
504,244	29,22
504,49	25,19
504,736	26,91
504,982	26,69
505,228	29,41
505,474	29,94
505,72	32,63
505,966	31,64
506,211	34,72
506,457	35,24
506,703	33,17
506,949	31,76
507,195	30,79
507,441	28,11
507,686	29,4
507,932	29,59
508,178	33,17
508,424	32,12
508,669	30,87
508,915	32,64
509,161	35,6
509,406	35,35
509,652	32,32
509,898	35,94
510,143	36,61
510,389	35,15
510,634	31,59
510,88	35,74
511,125	38,03
511,371	39,88
511,616	41,29
511,862	39,44
512,107	36,65
512,353	36,34
512,598	36,91
512,844	34,15
513,089	30,93
513,335	31,42
513,58	31,6
513,825	32,61
514,071	31,96
514,316	31,58
514,561	32,63
514,806	30,73
515,052	34,35
515,297	34,5
515,542	35,48
515,787	35,24
516,033	37,5
516,278	37,95
516,523	37,51
516,768	36,86
517,013	35,51
517,258	35,51
517,503	33,63
517,748	35,81
517,993	34,97
518,238	35,38
518,483	33,59
518,728	33,28
518,973	30,42
519,218	29,99
519,463	32,14
519,708	32,36
519,953	31,76
520,198	31,53
520,443	34,05
520,688	36,94
520,933	36,99
521,177	37,83
521,422	35,13
521,667	37,73
521,912	38,19
522,157	34,34
522,401	37,58
522,646	36,96
522,891	36,48
523,135	35,3
523,38	35,08
523,625	33,96
523,869	35,05
524,114	35,97
524,358	34,32
524,603	34,13
524,848	32,16
525,092	33,08
525,337	32,65
525,581	34,3
525,826	36,6
526,07	36,71
526,315	36,78
526,559	36,28
526,803	34,99
527,048	36,53
527,292	38,39
527,537	37,68
527,781	35,96
528,025	34,06
528,269	35,66
528,514	35,04
528,758	33,17
529,002	34,14
529,247	37,47
529,491	36,7
529,735	41,58
529,979	41,35
530,223	42,19
530,467	40,22
530,712	38,01
530,956	38,06
531,2	38,65
531,444	37,05
531,688	39,45
531,932	39,13
532,176	39,94
532,42	42,7
532,664	41,85
532,908	40,98
533,152	39,85
533,396	39,65
533,64	37,79
533,884	36,25
534,128	36,72
534,371	37
534,615	37,26
534,859	36,08
535,103	36,88
535,347	38,16
535,59	39,22
535,834	35,32
536,078	37,28
536,322	39,66
536,565	42
536,809	39,68
537,053	41,62
537,296	40,42
537,54	39,46
537,784	37,56
538,027	38,67
538,271	37,66
538,514	36,05
538,758	37,22
539,001	34,63
539,245	33,23
539,488	34,76
539,732	36,74
539,975	35,73
540,219	38,47
540,462	38,52
540,706	40,81
540,949	39,95
541,192	41,79
541,436	47,67
541,679	52,58
541,922	54,16
542,166	50,22
542,409	49,88
542,652	50,57
542,895	51,41
543,139	52,03
543,382	55,19
543,625	54,38
543,868	54,8
544,111	52,84
544,354	50,66
544,598	49,48
544,841	49,37
545,084	49,41
545,327	50,24
545,57	52,1
545,813	55,33
546,056	54,88
546,299	54,13
546,542	56,8
546,785	59,42
547,028	60,16
547,271	58,5
547,514	59,01
547,756	55,71
547,999	56,57
548,242	57,72
548,485	54,71
548,728	55,03
548,971	49,58
549,213	49,24
549,456	49,42
549,699	49,48
549,942	50,03
550,184	48,92
550,427	48,83
550,67	47,95
550,912	44,76
551,155	45,66
551,398	44,52
551,64	44,01
551,883	44,87
552,125	43,66
552,368	43,88
552,61	40,77
552,853	42,43
553,095	40,49
553,338	40,38
553,58	41,67
553,823	40,93
554,065	41,97
554,308	37,06
554,55	34,78
554,792	33,3
555,035	31,54
555,277	30,69
555,519	30,53
555,762	27,9
556,004	30,19
556,246	27,3
556,488	28,36
556,731	24,49
556,973	24,14
557,215	23,47
557,457	26,26
557,699	28,65
557,941	25,59
558,183	26,36
558,426	28,54
558,668	25,8
558,91	25,58
559,152	25,52
559,394	23,85
559,636	26,29
559,878	26,33
560,12	25,96
560,362	27,29
560,604	28,71
560,845	27,92
561,087	25,51
561,329	27,87
