Data from led_4000k_2_FLMT021711__18__17-34-49-672.txt Node

Date: Tue Nov 05 17:34:49 CET 2024
User: Etudiants TP
Spectrometer: FLMT02171
Trigger mode: 0
Integration Time (sec): 1,000000E-1
Scans to average: 5
Electric dark correction enabled: true
Nonlinearity correction enabled: true
Boxcar width: 15
XAxis mode: Wavelengths
Number of Pixels in Spectrum: 3648
>>>>>Begin Spectral Data<<<<<
194,658	-73,75
194,923	-67,97
195,188	-60,1
195,453	-59,05
195,717	-53,15
195,982	-51
196,247	-48,4
196,512	-51,24
196,777	-49,07
197,042	-46,94
197,307	-46,66
197,572	-42,81
197,837	-42,52
198,101	-39,32
198,366	-35,4
198,631	-34,04
198,896	-26,42
199,161	-18,87
199,425	-10,86
199,69	0,44
199,955	-1,01
200,22	-5,69
200,484	-6,74
200,749	-7,6
201,014	-5,74
201,278	-5,04
201,543	-4,11
201,807	-3,56
202,072	-1,89
202,337	-2,83
202,601	-2,6
202,866	-3,94
203,13	-3,4
203,395	-5,88
203,659	-6,35
203,924	-7,55
204,189	-6,88
204,453	-5,59
204,717	-2,42
204,982	-1,11
205,246	0,38
205,511	2,93
205,775	3,17
206,04	8,41
206,304	7,62
206,568	8,05
206,833	8,95
207,097	9,59
207,361	12,6
207,626	17,16
207,89	18,01
208,154	19,24
208,419	22,52
208,683	22,62
208,947	26,31
209,211	25,25
209,476	24,59
209,74	24,34
210,004	24,67
210,268	24,91
210,532	27,43
210,796	27,12
211,061	26,69
211,325	25,95
211,589	25,33
211,853	27,52
212,117	27,41
212,381	26,62
212,645	26,59
212,909	26,23
213,173	22,27
213,437	22,32
213,701	21,32
213,965	20,98
214,229	16,87
214,493	15,92
214,757	15,58
215,021	15,1
215,285	18,6
215,549	20,65
215,813	16,47
216,077	15,22
216,34	16,5
216,604	16,72
216,868	17,49
217,132	18,16
217,396	18,01
217,659	18,13
217,923	14,52
218,187	13,92
218,451	14,03
218,714	13,02
218,978	13,25
219,242	16,27
219,505	17,65
219,769	18,04
220,033	17,29
220,296	19,49
220,56	21,06
220,824	19,56
221,087	21,27
221,351	22,08
221,614	21,53
221,878	22,78
222,142	20,5
222,405	20,24
222,669	23,87
222,932	19,46
223,196	17,98
223,459	14,57
223,722	14,48
223,986	14,26
224,249	13,17
224,513	15,29
224,776	13,28
225,04	13,3
225,303	12,05
225,566	12,12
225,83	14,62
226,093	18,28
226,356	16,76
226,62	14,34
226,883	15,17
227,146	16,35
227,409	14,79
227,673	12,2
227,936	12,05
228,199	11,84
228,462	9,09
228,725	8,37
228,989	8,04
229,252	8,3
229,515	14,56
229,778	13,41
230,041	12,73
230,304	12,95
230,567	13,87
230,83	12,22
231,093	15,08
231,356	14,85
231,619	21,37
231,882	20,85
232,145	22,15
232,408	22,71
232,671	20,32
232,934	21,04
233,197	20,36
233,46	19,07
233,723	21,16
233,986	19,28
234,249	16,9
234,512	19,15
234,775	23,12
235,037	22,69
235,3	22,15
235,563	23
235,826	23,95
236,089	25,48
236,351	26,08
236,614	28,56
236,877	28,03
237,14	31,05
237,402	30,17
237,665	22,84
237,928	22,1
238,19	19,94
238,453	22,23
238,716	21
238,978	20,34
239,241	19,75
239,503	22,89
239,766	17,79
240,029	15,01
240,291	18,92
240,554	17,92
240,816	17,8
241,079	18,08
241,341	18,11
241,604	16,9
241,866	12,93
242,129	13,78
242,391	15,62
242,653	14,93
242,916	15,66
243,178	15,35
243,441	15,81
243,703	14,32
243,965	11,6
244,228	12,85
244,49	12,11
244,752	10,93
245,015	12,37
245,277	12,55
245,539	12,18
245,801	13,88
246,064	12,89
246,326	11,68
246,588	11,21
246,85	12,94
247,112	15,01
247,374	15,59
247,637	16,94
247,899	16,81
248,161	17,58
248,423	12,34
248,685	12,63
248,947	12,51
249,209	12,88
249,471	13,67
249,733	15,08
249,995	13,67
250,257	11,95
250,519	10,66
250,781	12,69
251,043	7,15
251,305	9,04
251,567	11,49
251,829	12,37
252,091	13,47
252,353	8,64
252,615	9,83
252,876	8,81
253,138	6,69
253,4	3,58
253,662	3,21
253,924	5,27
254,185	7,45
254,447	8,14
254,709	8,7
254,971	11
255,232	12,3
255,494	11,26
255,756	8,97
256,017	10,09
256,279	10,38
256,541	10
256,802	9,29
257,064	10,8
257,326	9,45
257,587	9,92
257,849	11,48
258,11	15,04
258,372	17,39
258,633	19,05
258,895	19,06
259,156	20,08
259,418	18,11
259,679	12,27
259,941	10,8
260,202	13
260,464	15,59
260,725	13,89
260,987	12,93
261,248	12,12
261,509	12,11
261,771	13,29
262,032	15,38
262,293	15,6
262,555	16,44
262,816	13,76
263,077	11,17
263,338	6,97
263,6	7,9
263,861	6,64
264,122	5,02
264,383	7,82
264,645	10,05
264,906	9,44
265,167	9,36
265,428	10,33
265,689	11,01
265,95	7,91
266,211	9,89
266,473	8,64
266,734	5,67
266,995	1,92
267,256	2,91
267,517	6
267,778	10,41
268,039	11,59
268,3	9,79
268,561	7,75
268,822	9,33
269,083	7,64
269,344	7,25
269,604	7,4
269,865	7,07
270,126	3,16
270,387	3,27
270,648	4,09
270,909	3,64
271,17	2,43
271,43	-1,5
271,691	-4,85
271,952	-4,05
272,213	-1,98
272,473	-5,58
272,734	-4,92
272,995	-2,42
273,256	-2,23
273,516	-1,11
273,777	-2,8
274,038	-0,56
274,298	-3,82
274,559	-5,38
274,82	-0,9
275,08	2,62
275,341	5,58
275,601	3,47
275,862	1,36
276,122	1,65
276,383	2,42
276,643	4,79
276,904	4,61
277,164	8,3
277,425	8,81
277,685	12,93
277,946	12,87
278,206	14,44
278,467	16,83
278,727	16,74
278,987	16,32
279,248	15,6
279,508	19,72
279,768	22,49
280,029	22,76
280,289	18,7
280,549	18,09
280,81	18,4
281,07	16,47
281,33	18,9
281,59	16,5
281,851	18,43
282,111	17,7
282,371	16,81
282,631	19,45
282,891	17,24
283,151	14,8
283,412	11,97
283,672	11,69
283,932	12,34
284,192	13,7
284,452	12,52
284,712	9,39
284,972	8,28
285,232	5,93
285,492	8,72
285,752	4,96
286,012	10,71
286,272	12,66
286,532	9,52
286,792	10,77
287,052	12,79
287,312	13,16
287,571	11,26
287,831	11,64
288,091	8,13
288,351	10,24
288,611	14,13
288,871	13,14
289,13	13,82
289,39	8,65
289,65	10,6
289,91	7,61
290,17	10,96
290,429	14,03
290,689	10,28
290,949	7,89
291,208	10,04
291,468	11,39
291,728	12,27
291,987	13,49
292,247	12,58
292,506	14,44
292,766	19,12
293,026	18,03
293,285	20,09
293,545	21,13
293,804	20,78
294,064	17,05
294,323	13,77
294,583	14,37
294,842	13,29
295,102	13,9
295,361	14,26
295,621	14,81
295,88	15,5
296,139	16,14
296,399	15,79
296,658	9,6
296,917	10,14
297,177	6,85
297,436	8,5
297,695	7,13
297,955	8,43
298,214	7,17
298,473	7,66
298,732	11,02
298,992	14,83
299,251	12,81
299,51	10,55
299,769	11,37
300,028	12,12
300,287	11,49
300,547	11,16
300,806	7,23
301,065	10,73
301,324	10,78
301,583	6,52
301,842	3,53
302,101	1,09
302,36	2,43
302,619	2,74
302,878	3,85
303,137	2,16
303,396	3,82
303,655	6,3
303,914	3,02
304,173	3,94
304,432	3,77
304,691	8,53
304,95	5,94
305,208	11,44
305,467	11,48
305,726	9,62
305,985	11,33
306,244	11,31
306,503	11,37
306,761	9,64
307,02	5,79
307,279	7,27
307,537	7,32
307,796	4,26
308,055	0,58
308,314	2,38
308,572	1,35
308,831	3,46
309,09	4,13
309,348	5,78
309,607	6,8
309,865	11,62
310,124	11,81
310,382	13,06
310,641	13,5
310,9	12,15
311,158	12,22
311,417	12,23
311,675	11,55
311,933	11,92
312,192	13,33
312,45	12,77
312,709	11,18
312,967	10,8
313,226	8,85
313,484	7,94
313,742	7,6
314,001	5,24
314,259	4,54
314,517	5,31
314,776	7,78
315,034	10,56
315,292	9,1
315,55	7,4
315,809	7,94
316,067	8,85
316,325	6,94
316,583	7,91
316,841	6,82
317,1	3,71
317,358	-0,49
317,616	-1,92
317,874	-3,34
318,132	-4,78
318,39	-5,55
318,648	-6,56
318,906	-7,37
319,164	-6,75
319,422	-7,16
319,68	-8,19
319,938	-7,08
320,196	-7,29
320,454	-5,18
320,712	-4,81
320,97	-3,72
321,228	-5,12
321,486	-1,57
321,744	0,55
322,002	2,29
322,26	0,54
322,517	0,24
322,775	-3
323,033	-4,16
323,291	-3,17
323,549	-0,88
323,806	0,68
324,064	1,04
324,322	2,59
324,58	1,11
324,837	2,45
325,095	0,92
325,353	3,87
325,61	6,85
325,868	6,26
326,126	9
326,383	6,36
326,641	5,55
326,898	7,64
327,156	6,94
327,413	6,27
327,671	6,26
327,928	7,81
328,186	8,57
328,443	7
328,701	11,44
328,958	12,5
329,216	12,96
329,473	10,26
329,731	11,52
329,988	12,79
330,245	15,02
330,503	15,82
330,76	15,98
331,017	16,83
331,275	15,06
331,532	15,09
331,789	11,99
332,047	12,12
332,304	8,8
332,561	9,52
332,818	9,2
333,076	11,03
333,333	11,01
333,59	11,55
333,847	12,18
334,104	11,73
334,361	12,42
334,618	11,31
334,876	8,72
335,133	8,6
335,39	6,67
335,647	7,48
335,904	4,49
336,161	0,97
336,418	2,2
336,675	-2,45
336,932	-1,62
337,189	-1,4
337,446	-0,79
337,703	-3,42
337,96	-8,95
338,216	-8,93
338,473	-12,49
338,73	-11,9
338,987	-11,99
339,244	-8,71
339,501	-10,33
339,757	-9,51
340,014	-8,78
340,271	-6,26
340,528	-5,37
340,785	-1,5
341,041	-0,47
341,298	-2,83
341,555	-3,45
341,811	-2,93
342,068	-5,82
342,325	-5,3
342,581	-2,43
342,838	0,13
343,094	0,55
343,351	1,18
343,608	-0,17
343,864	2,41
344,121	4,67
344,377	3,18
344,634	1,95
344,89	0,54
345,147	0,37
345,403	-1,12
345,66	-0,72
345,916	0,49
346,172	-1,71
346,429	-2,53
346,685	-3,63
346,942	-2,46
347,198	-6,75
347,454	-5,83
347,711	-4,65
347,967	-6,92
348,223	-7,11
348,48	-7,24
348,736	-4,7
348,992	-5,83
349,248	-3,68
349,504	-4
349,761	-4,35
350,017	-3,45
350,273	-4,22
350,529	-6,1
350,785	-7,34
351,041	-8,63
351,297	-6,03
351,554	-8,51
351,81	-11,23
352,066	-12,83
352,322	-12,35
352,578	-10,63
352,834	-11,39
353,09	-10,92
353,346	-11,21
353,602	-12,26
353,858	-11,12
354,114	-11,64
354,369	-10,5
354,625	-7,25
354,881	-9,23
355,137	-6,18
355,393	-6,27
355,649	-6,06
355,905	-6,6
356,16	-5,96
356,416	-5,56
356,672	-13,06
356,928	-11,47
357,183	-13,01
357,439	-13,24
357,695	-15,08
357,951	-9,67
358,206	-9,88
358,462	-9,32
358,718	-11,57
358,973	-9,99
359,229	-11,28
359,484	-9,45
359,74	-5,75
359,996	-4,12
360,251	-0,58
360,507	-2,34
360,762	-2,24
361,018	-1,15
361,273	-1,11
361,529	0,27
361,784	0,24
362,04	1,93
362,295	1,66
362,55	1,12
362,806	3,33
363,061	3,52
363,316	4,46
363,572	5,82
363,827	9,42
364,082	6,34
364,338	6,11
364,593	7,15
364,848	8,15
365,104	8,57
365,359	10,53
365,614	10,12
365,869	6,12
366,124	7,37
366,38	6,41
366,635	8,96
366,89	10,11
367,145	10,12
367,4	14,02
367,655	13,2
367,91	13,45
368,165	11,06
368,42	9,98
368,675	11,19
368,93	11,55
369,185	8,31
369,44	9,66
369,695	12,51
369,95	11,76
370,205	11,02
370,46	11
370,715	10,7
370,97	11,76
371,225	11,82
371,48	13,14
371,734	12,63
371,989	14,74
372,244	14,15
372,499	15,3
372,754	12,43
373,008	10,51
373,263	6,26
373,518	9,78
373,773	8,09
374,027	6,94
374,282	7,9
374,537	8,34
374,791	8,65
375,046	7,2
375,301	6,39
375,555	4,81
375,81	5,8
376,064	6,7
376,319	10,66
376,573	9,71
376,828	6,16
377,082	11,62
377,337	8,18
377,591	4,22
377,846	5,43
378,1	8,8
378,355	8,93
378,609	8,43
378,863	4,65
379,118	5,4
379,372	2,69
379,627	0,45
379,881	-2,07
380,135	-2,49
380,389	-2,96
380,644	-1,18
380,898	-0,65
381,152	1,9
381,407	1,98
381,661	4,76
381,915	6,73
382,169	9,09
382,423	8,26
382,677	6,12
382,932	8,01
383,186	8,07
383,44	8,92
383,694	10,18
383,948	7,37
384,202	4,27
384,456	5,49
384,71	7,88
384,964	5,55
385,218	8,01
385,472	9,18
385,726	7,24
385,98	5,86
386,234	4,98
386,488	1,19
386,742	2,94
386,996	0,59
387,249	2,06
387,503	5,53
387,757	6,58
388,011	7,73
388,265	8,41
388,518	9,06
388,772	11,38
389,026	12,17
389,28	8,92
389,533	7,32
389,787	8,84
390,041	6,16
390,295	6,01
390,548	5,68
390,802	8,95
391,055	8,04
391,309	6,85
391,563	5,71
391,816	7,46
392,07	7,14
392,323	8,36
392,577	9,11
392,83	11,02
393,084	16,4
393,337	19,91
393,591	22,43
393,844	23,07
394,098	27,45
394,351	32,52
394,604	34,54
394,858	36,91
395,111	36,81
395,364	33,93
395,618	37,05
395,871	35,51
396,124	34,84
396,378	32,76
396,631	31,79
396,884	28,78
397,137	29,97
397,391	30,88
397,644	27,65
397,897	28,2
398,15	29,66
398,403	33,3
398,657	30,03
398,91	29,37
399,163	30,47
399,416	29,34
399,669	28,01
399,922	27,41
400,175	24,68
400,428	23,57
400,681	22,58
400,934	17,52
401,187	15,87
401,44	15,7
401,693	13,43
401,946	9,06
402,199	4,09
402,452	2,61
402,704	-1,47
402,957	-2,28
403,21	-1,18
403,463	-3,67
403,716	-3,32
403,969	-2,35
404,221	-2,15
404,474	1,01
404,727	4,36
404,98	6,41
405,232	7,29
405,485	9,24
405,738	11,23
405,99	10,62
406,243	9,91
406,496	12,18
406,748	11,01
407,001	10,88
407,253	11,91
407,506	11,74
407,759	13,3
408,011	10,86
408,264	11,08
408,516	11,88
408,769	11,19
409,021	12,35
409,274	12,3
409,526	16,83
409,778	15,46
410,031	19,03
410,283	18,6
410,536	25,49
410,788	23,28
411,04	23,27
411,293	25,61
411,545	26,3
411,797	25,4
412,049	24,98
412,302	24,08
412,554	23,94
412,806	21,34
413,058	18,7
413,311	18,95
413,563	18,1
413,815	18,79
414,067	17,22
414,319	16,53
414,571	17,83
414,823	15,81
415,075	13,96
415,328	14,86
415,58	17,65
415,832	19,32
416,084	20,76
416,336	18,38
416,588	20,84
416,84	18,14
417,091	19,86
417,343	14,8
417,595	17,57
417,847	18,92
418,099	19,75
418,351	17,4
418,603	21,48
418,855	22,12
419,106	21,39
419,358	21,86
419,61	21,67
419,862	23,43
420,114	22,31
420,365	22,3
420,617	22,9
420,869	21,91
421,12	21,91
421,372	22,09
421,624	20,98
421,875	20,87
422,127	17,01
422,379	16,54
422,63	19,27
422,882	18,83
423,133	19,1
423,385	18,79
423,636	21,28
423,888	21,26
424,139	25,8
424,391	23,74
424,642	23,67
424,894	21,66
425,145	22,33
425,396	19,36
425,648	21,57
425,899	20,7
426,151	21,69
426,402	19,91
426,653	20,37
426,905	19,08
427,156	16,66
427,407	17,35
427,658	15,21
427,91	12,05
428,161	10,97
428,412	13,15
428,663	13,95
428,914	14,51
429,166	16,1
429,417	17,25
429,668	16,95
429,919	15,35
430,17	16,2
430,421	16,37
430,672	19,64
430,923	20,36
431,174	18,94
431,425	19,37
431,676	20,01
431,927	16,32
432,178	17,96
432,429	17,69
432,68	18,24
432,931	21,59
433,182	25,13
433,433	21,52
433,683	23,28
433,934	22,27
434,185	20,35
434,436	19,66
434,687	20,94
434,937	25,37
435,188	22,75
435,439	23,46
435,69	26,24
435,94	26,25
436,191	26,96
436,442	27,8
436,692	26,6
436,943	22,26
437,194	20,23
437,444	21,96
437,695	26,88
437,945	28,24
438,196	26,83
438,447	25,79
438,697	25,8
438,948	26,09
439,198	23,31
439,449	19,93
439,699	21,13
439,949	20,67
440,2	22,19
440,45	23,34
440,701	21,66
440,951	22,23
441,201	24,53
441,452	23,65
441,702	23,08
441,952	25,52
442,203	25,79
442,453	25,26
442,703	25,68
442,953	26,86
443,204	29,62
443,454	28,07
443,704	29,36
443,954	27,08
444,204	28,74
444,455	30,14
444,705	33,98
444,955	35,34
445,205	36,25
445,455	35,4
445,705	35,43
445,955	35,33
446,205	35,87
446,455	37,74
446,705	39,17
446,955	40,98
447,205	43,3
447,455	45,19
447,705	44,86
447,955	44,01
448,205	46
448,454	47,63
448,704	49,25
448,954	47,34
449,204	49,5
449,454	50,71
449,704	51,07
449,953	51,31
450,203	54,47
450,453	52,33
450,703	57,3
450,952	56,7
451,202	59,93
451,452	60,5
451,701	64,59
451,951	69,47
452,201	70,08
452,45	70,24
452,7	73,56
452,949	74,14
453,199	74,58
453,448	78,03
453,698	82,13
453,947	82,82
454,197	82,35
454,446	81,71
454,696	86,12
454,945	87,22
455,195	86,98
455,444	88,22
455,693	92,99
455,943	91,09
456,192	92,44
456,442	93,33
456,691	95,58
456,94	95,21
457,189	95,13
457,439	97,1
457,688	100,75
457,937	100,13
458,186	99,87
458,436	99,51
458,685	100,57
458,934	99,18
459,183	99,46
459,432	101,17
459,681	100,2
459,93	100,47
460,179	99,51
460,429	96,27
460,678	99,63
460,927	102,16
461,176	98,72
461,425	96,45
461,674	97,77
461,923	98,02
462,172	97,23
462,42	94,6
462,669	96,22
462,918	96,07
463,167	95,65
463,416	91,88
463,665	92,29
463,914	91,53
464,162	88,77
464,411	88,92
464,66	91,1
464,909	90,36
465,158	90,78
465,406	88,34
465,655	90,59
465,904	92,79
466,152	93,18
466,401	93,73
466,65	95,22
466,898	93,01
467,147	89,1
467,395	88,2
467,644	90,35
467,893	90,29
468,141	90,58
468,39	86,73
468,638	84,19
468,887	84
469,135	84,34
469,384	83,79
469,632	83,94
469,88	84,72
470,129	86,93
470,377	83,72
470,626	86,37
470,874	88,43
471,122	90,13
471,371	88,88
471,619	88,18
471,867	90,86
472,115	91,29
472,364	86,88
472,612	90,43
472,86	87,81
473,108	89,34
473,356	88,27
473,605	89,27
473,853	84,64
474,101	84
474,349	82,37
474,597	85,89
474,845	83,93
475,093	81,86
475,341	77,49
475,589	77,72
475,837	78,76
476,085	79,78
476,333	78,91
476,581	79,88
476,829	79,3
477,077	82,64
477,325	81,49
477,573	83,15
477,821	81,36
478,069	83,13
478,317	81,21
478,564	83,02
478,812	81,82
479,06	80,5
479,308	79,66
479,555	78,67
479,803	77,1
480,051	79,68
480,299	78,47
480,546	78,4
480,794	75,37
481,042	77,03
481,289	75,42
481,537	78,29
481,784	77,72
482,032	82,07
482,28	81,48
482,527	81,99
482,775	83,53
483,022	87,18
483,27	89,04
483,517	92,33
483,765	92,82
484,012	93,1
484,259	91,29
484,507	93,71
484,754	92,93
485,002	93,07
485,249	90,92
485,496	93,4
485,744	92,96
485,991	93,52
486,238	92,37
486,486	94,35
486,733	97,16
486,98	100,56
487,227	100,35
487,474	102,1
487,722	105,49
487,969	103,35
488,216	104,77
488,463	106,63
488,71	103,64
488,957	102,68
489,204	101,76
489,451	102,77
489,699	100,75
489,946	98,49
490,193	98,28
490,44	96,98
490,687	96,24
490,934	93,89
491,18	90,93
491,427	91,9
491,674	94,86
491,921	95,93
492,168	95,74
492,415	94,29
492,662	96,69
492,909	99,46
493,155	98,18
493,402	96,02
493,649	95,28
493,896	95,62
494,142	93,5
494,389	93,22
494,636	92,45
494,883	91,14
495,129	90,81
495,376	88,57
495,623	91,54
495,869	93,95
496,116	95,09
496,362	97,37
496,609	101,91
496,855	108,09
497,102	106,9
497,348	107,65
497,595	109,3
497,841	114,7
498,088	114,91
498,334	115,01
498,581	114,37
498,827	114,74
499,074	116,42
499,32	117,48
499,566	121,63
499,813	122,21
500,059	120,77
500,305	120,33
500,552	119,38
500,798	119,92
501,044	126,56
501,29	125,06
501,537	122,74
501,783	125,07
502,029	128,85
502,275	125,88
502,521	124,52
502,767	124,26
503,013	128,44
503,26	125,01
503,506	122,18
503,752	124,72
503,998	123,93
504,244	124,71
504,49	121,3
504,736	124,64
504,982	125
505,228	127,43
505,474	127,93
505,72	129,42
505,966	128,43
506,211	134,21
506,457	134,98
506,703	131,47
506,949	131,06
507,195	129,92
507,441	127,43
507,686	131,04
507,932	132,06
508,178	135,03
508,424	133,87
508,669	132,02
508,915	133,44
509,161	137,04
509,406	137,98
509,652	137,27
509,898	141,86
510,143	144,1
510,389	143,72
510,634	139,53
510,88	145,54
511,125	149,15
511,371	148,15
511,616	147,93
511,862	144,32
512,107	143,86
512,353	145,4
512,598	146,79
512,844	145,13
513,089	142,63
513,335	144,14
513,58	146,17
513,825	146,15
514,071	145,18
514,316	146,15
514,561	147,46
514,806	146,57
515,052	149,18
515,297	148,12
515,542	149,79
515,787	150,23
516,033	151,85
516,278	151,11
516,523	150,61
516,768	149,86
517,013	148,07
517,258	148,65
517,503	147,82
517,748	148,72
517,993	149,74
518,238	150,35
518,483	148,41
518,728	146,61
518,973	145,35
519,218	147,54
519,463	149,29
519,708	147,92
519,953	145,16
520,198	144,41
520,443	146,88
520,688	151,12
520,933	149,39
521,177	149,04
521,422	145,9
521,667	149,72
521,912	150,01
522,157	146,3
522,401	148,7
522,646	148,13
522,891	148,3
523,135	147,99
523,38	147,94
523,625	146,87
523,869	149,48
524,114	151,53
524,358	150,65
524,603	151,35
524,848	147,01
525,092	147,13
525,337	149,08
525,581	151,18
525,826	152,64
526,07	152,94
526,315	154,94
526,559	153,14
526,803	150,05
527,048	153,81
527,292	156,25
527,537	155,93
527,781	156,23
528,025	153,18
528,269	153,09
528,514	153,69
528,758	151,94
529,002	152,59
529,247	155,03
529,491	153,77
529,735	158,18
529,979	158,03
530,223	159,52
530,467	157,12
530,712	154,82
530,956	152,42
531,2	153,45
531,444	151,62
531,688	153,64
531,932	153,76
532,176	153,86
532,42	155,41
532,664	154,92
532,908	151,15
533,152	148,68
533,396	148,26
533,64	147,46
533,884	144,82
534,128	145,06
534,371	146,45
534,615	146,9
534,859	144,52
535,103	144,12
535,347	143,31
535,59	145,18
535,834	141,94
536,078	143,98
536,322	145,93
536,565	148,66
536,809	146,98
537,053	149,52
537,296	147,7
537,54	147,04
537,784	146,68
538,027	148,61
538,271	147,68
538,514	149,03
538,758	148,68
539,001	145,69
539,245	144,5
539,488	144,71
539,732	147,72
539,975	148,8
540,219	152,49
540,462	154,23
540,706	156,26
540,949	155,17
541,192	155,07
541,436	159,9
541,679	166,06
541,922	166,96
542,166	161,7
542,409	161,38
542,652	162,29
542,895	162,06
543,139	162,62
543,382	167,36
543,625	165,83
543,868	165,97
544,111	164,96
544,354	162,4
544,598	160,34
544,841	160,57
545,084	159,57
545,327	157,49
545,57	158,04
545,813	160,28
546,056	158,85
546,299	159,46
546,542	163,21
546,785	164,79
547,028	165,36
547,271	163,75
547,514	162,56
547,756	158,5
547,999	159,85
548,242	159,45
548,485	157,57
548,728	158,16
548,971	154,46
549,213	153,08
549,456	151,54
549,699	152,21
549,942	151,03
550,184	149,38
550,427	150,07
550,67	148,96
550,912	142,52
551,155	144,23
551,398	143,59
551,64	142,52
551,883	143,33
552,125	142,21
552,368	142,53
552,61	140,51
552,853	143,77
553,095	141,32
553,338	140,95
553,58	140,72
553,823	138,42
554,065	139,99
554,308	136,14
554,55	135,47
554,792	131,65
555,035	131,35
555,277	129,55
555,519	129,94
