Data from FLMT021711__21__17-07-16-412.txt Node

Date: Tue Nov 05 17:07:16 CET 2024
User: Etudiants TP
Spectrometer: FLMT02171
Trigger mode: 0
Integration Time (sec): 1.000000E-1
Scans to average: 5
Electric dark correction enabled: true
Nonlinearity correction enabled: false
Boxcar width: 15
XAxis mode: Wavelengths
Number of Pixels in Spectrum: 3648
>>>>>Begin Spectral Data<<<<<
194.658	-59.6
194.923	-55.98
195.188	-49.02
195.453	-48.03
195.717	-42.62
195.982	-42.43
196.247	-41.81
196.512	-44.53
196.777	-42.66
197.042	-41.21
197.307	-40.3
197.572	-36.79
197.837	-36.3
198.101	-35.23
198.366	-33.34
198.631	-31.25
198.896	-25.15
199.161	-18.45
199.425	-11.54
199.69	-2.09
199.955	-3.11
200.22	-5.6
200.484	-5.31
200.749	-6.07
201.014	-4.59
201.278	-5.26
201.543	-4.12
201.807	-3.22
202.072	-1.67
202.337	0.1
202.601	0.35
202.866	-2.21
203.13	-2.71
203.395	-4.77
203.659	-4.6
203.924	-6.8
204.189	-5.2
204.453	-3.67
204.717	-1.82
204.982	-1.5
205.246	0.76
205.511	1.52
205.775	0.08
206.04	4.66
206.304	6.7
206.568	9.04
206.833	9.14
207.097	9.39
207.361	10.66
207.626	13.35
207.89	13.1
208.154	12.9
208.419	14.68
208.683	13.73
208.947	15.1
209.211	14.67
209.476	15.55
209.74	16.36
210.004	15.33
210.268	15.42
210.532	17.89
210.796	17.86
211.061	18.66
211.325	18.63
211.589	17.23
211.853	18.6
212.117	19.47
212.381	19.97
212.645	19.43
212.909	20.02
213.173	18.47
213.437	17.87
213.701	18.32
213.965	20.67
214.229	16.54
214.493	15.07
214.757	13.48
215.021	13.22
215.285	16.32
215.549	17.51
215.813	16.84
216.077	16.27
216.34	19.15
216.604	17.11
216.868	16.99
217.132	18.42
217.396	16.95
217.659	17.02
217.923	14.69
218.187	14.22
218.451	12.52
218.714	10.36
218.978	10.48
219.242	12.19
219.505	14.54
219.769	15.89
220.033	13.78
220.296	14.21
220.56	13.48
220.824	13.43
221.087	14.11
221.351	14.22
221.614	15.4
221.878	16.51
222.142	14.21
222.405	14.45
222.669	16.86
222.932	13.73
223.196	12.39
223.459	10.25
223.722	12.03
223.986	9.85
224.249	8.48
224.513	8.38
224.776	9.51
225.04	9.87
225.303	10.42
225.566	11.96
225.83	13.22
226.093	15.71
226.356	14.46
226.62	14.42
226.883	16.3
227.146	15.67
227.409	14.81
227.673	12.19
227.936	10.82
228.199	12.44
228.462	10.57
228.725	11.18
228.989	10.04
229.252	11.22
229.515	15.11
229.778	12.47
230.041	11.75
230.304	10.05
230.567	10.47
230.83	8.9
231.093	10.77
231.356	9.89
231.619	14.72
231.882	11.88
232.145	13.92
232.408	12.84
232.671	11.78
232.934	10.3
233.197	8.96
233.46	7.02
233.723	7.47
233.986	5.9
234.249	4.53
234.512	5.99
234.775	10.13
235.037	9.39
235.3	10.3
235.563	10.93
235.826	11.95
236.089	15.46
236.351	14.98
236.614	17.87
236.877	17.71
237.14	20.66
237.402	19.92
237.665	15.24
237.928	14.7
238.19	12.46
238.453	15.19
238.716	15.18
238.978	14.87
239.241	14.6
239.503	17.66
239.766	13.6
240.029	12.14
240.291	14.26
240.554	15.33
240.816	16.47
241.079	17.74
241.341	18.47
241.604	16.8
241.866	14.22
242.129	15.72
242.391	17.11
242.653	16.95
242.916	14.97
243.178	14.42
243.441	14.68
243.703	13.38
243.965	12.56
244.228	10.43
244.49	10.13
244.752	10.86
245.015	12.12
245.277	12.96
245.539	11.69
245.801	13.51
246.064	13.99
246.326	13.76
246.588	11.67
246.85	12.03
247.112	12.11
247.374	13.23
247.637	12.97
247.899	13.04
248.161	14.69
248.423	10.34
248.685	10.88
248.947	9.38
249.209	8.24
249.471	8.53
249.733	9.41
249.995	8.1
250.257	7.11
250.519	5.54
250.781	7.11
251.043	5.2
251.305	6
251.567	7.43
251.829	9.62
252.091	8.35
252.353	6.32
252.615	6.97
252.876	4.72
253.138	2.66
253.4	-1.31
253.662	-0.01
253.924	0.59
254.185	0.9
254.447	0.79
254.709	3.22
254.971	4.97
255.232	6.88
255.494	6.24
255.756	6.26
256.017	7.1
256.279	7.73
256.541	8.88
256.802	7.95
257.064	8.92
257.326	8.02
257.587	9.69
257.849	11.8
258.11	14.11
258.372	14.86
258.633	16.25
258.895	16.07
259.156	15.29
259.418	14.07
259.679	11.14
259.941	7.38
260.202	9.89
260.464	11.44
260.725	11.22
260.987	9.72
261.248	8.81
261.509	10.04
261.771	9.48
262.032	11.46
262.293	10.67
262.555	11.57
262.816	8.83
263.077	5.94
263.338	4
263.6	4.14
263.861	1.39
264.122	0.39
264.383	1.68
264.645	3.1
264.906	1.91
265.167	3.01
265.428	3.82
265.689	3.6
265.95	0.86
266.211	1.86
266.473	0.55
266.734	-3.12
266.995	-6.11
267.256	-4.65
267.517	-1.54
267.778	0.7
268.039	2.82
268.3	1.85
268.561	0.27
268.822	2.25
269.083	2.54
269.344	1.17
269.604	1.33
269.865	0.46
270.126	-2.7
270.387	-1.24
270.648	-0.09
270.909	-0.3
271.17	-0.09
271.43	-2.33
271.691	-4.49
271.952	-3.28
272.213	-2.25
272.473	-3.72
272.734	-2.57
272.995	-0.52
273.256	-1.77
273.516	0.65
273.777	0.13
274.038	2.2
274.298	0.42
274.559	0.85
274.82	5.18
275.08	7.65
275.341	7.46
275.601	5.33
275.862	3.97
276.122	4.78
276.383	4.4
276.643	6.78
276.904	5.67
277.164	8.07
277.425	8.79
277.685	11.92
277.946	12.29
278.206	12.75
278.467	14.08
278.727	13.85
278.987	12.66
279.248	12.08
279.508	14.64
279.768	16.54
280.029	17.64
280.289	14.75
280.549	12.75
280.81	10.82
281.07	9.52
281.33	11.84
281.59	9.6
281.851	9.85
282.111	8.7
282.371	7.01
282.631	7.74
282.891	6.06
283.151	4.36
283.412	3.84
283.672	4.66
283.932	4.13
284.192	4.96
284.452	3.27
284.712	0.35
284.972	-0.79
285.232	-4.04
285.492	-1.69
285.752	-4.35
286.012	0.77
286.272	2.81
286.532	-0.16
286.792	-0.69
287.052	2.81
287.312	3.66
287.571	1.86
287.831	2.15
288.091	-0.88
288.351	-0.55
288.611	4.34
288.871	3.63
289.13	5.48
289.39	1.04
289.65	2.12
289.91	1.56
290.17	3.78
290.429	6.67
290.689	5.35
290.949	2.64
291.208	4.17
291.468	6.25
291.728	6.32
291.987	7.14
292.247	5.16
292.506	7.52
292.766	11.44
293.026	11.16
293.285	13.08
293.545	15.13
293.804	15.32
294.064	12
294.323	8.6
294.583	9.89
294.842	10.93
295.102	10.82
295.361	10.51
295.621	10.72
295.88	10.9
296.139	11.46
296.399	12.65
296.658	8.1
296.917	8.69
297.177	5.34
297.436	8.4
297.695	6.77
297.955	6.98
298.214	5.72
298.473	6.98
298.732	8.12
298.992	11.6
299.251	10.83
299.51	7.23
299.769	7.96
300.028	8.28
300.287	8.21
300.547	8.93
300.806	6.44
301.065	8.15
301.324	9.19
301.583	5.57
301.842	1.89
302.101	0.66
302.36	1.22
302.619	0.75
302.878	1.33
303.137	-1.5
303.396	-0.01
303.655	1.27
303.914	-1.04
304.173	-1.92
304.432	-1.64
304.691	0.31
304.95	-0.91
305.208	2.3
305.467	1.49
305.726	1.9
305.985	2.87
306.244	4.11
306.503	3.35
306.761	2.45
307.02	-0.13
307.279	0.84
307.537	2.7
307.796	-0.14
308.055	-2.77
308.314	-1.9
308.572	-3.89
308.831	-2.62
309.09	-2.71
309.348	-1.2
309.607	-1.13
309.865	3.26
310.124	3.58
310.382	5.75
310.641	7
310.9	4.83
311.158	6.42
311.417	6.9
311.675	6.8
311.933	8.3
312.192	10.31
312.45	9.24
312.709	8.78
312.967	7.46
313.226	8.18
313.484	7.92
313.742	6.93
314.001	5.65
314.259	3.76
314.517	5.84
314.776	7.69
315.034	8.84
315.292	6.17
315.55	3.82
315.809	2.89
316.067	5.24
316.325	3.79
316.583	4.94
316.841	3.24
317.1	2.1
317.358	-1.82
317.616	-1.68
317.874	-2.92
318.132	-3.44
318.39	-4
318.648	-4.56
318.906	-4.82
319.164	-5.85
319.422	-7.96
319.68	-9.35
319.938	-9.63
320.196	-9.08
320.454	-7.63
320.712	-8.3
320.97	-7.1
321.228	-8.31
321.486	-8.18
321.744	-7.09
322.002	-5.64
322.26	-6.9
322.517	-9.16
322.775	-11.93
323.033	-12.74
323.291	-9.57
323.549	-7.28
323.806	-5.97
324.064	-6.7
324.322	-4.36
324.58	-4.74
324.837	-2.71
325.095	-5
325.353	-3.66
325.61	-2.34
325.868	-3.41
326.126	-1.52
326.383	-2.33
326.641	-3.48
326.898	-2.02
327.156	-1.13
327.413	-1.56
327.671	-0.71
327.928	0.55
328.186	-0.77
328.443	-1.52
328.701	1.78
328.958	2.53
329.216	2.04
329.473	2.01
329.731	1.85
329.988	1.89
330.245	4.78
330.503	6.37
330.76	6.58
331.017	10.14
331.275	8.28
331.532	8.05
331.789	8.22
332.047	8.22
332.304	5.51
332.561	5.85
332.818	5.04
333.076	8.7
333.333	11.12
333.59	10.72
333.847	11.6
334.104	10.92
334.361	9.37
334.618	8.1
334.876	6.45
335.133	6.06
335.39	5.65
335.647	7.18
335.904	3.53
336.161	3.14
336.418	3.86
336.675	0.44
336.932	2.06
337.189	1.3
337.446	2.01
337.703	0.81
337.96	-3.22
338.216	-4.61
338.473	-8.05
338.73	-6.71
338.987	-8.29
339.244	-6.73
339.501	-8.99
339.757	-9.83
340.014	-8.75
340.271	-8.1
340.528	-7.99
340.785	-4.98
341.041	-6.04
341.298	-10.3
341.555	-8.94
341.811	-8.92
342.068	-11.24
342.325	-9.48
342.581	-7.74
342.838	-6.75
343.094	-7.2
343.351	-6.94
343.608	-9.22
343.864	-6.17
344.121	-4.77
344.377	-6.37
344.634	-7.1
344.89	-8.6
345.147	-8.7
345.403	-10.83
345.66	-11.22
345.916	-7.94
346.172	-8.53
346.429	-7.7
346.685	-10.12
346.942	-9.7
347.198	-12.77
347.454	-10.43
347.711	-9.46
347.967	-12.18
348.223	-12.4
348.48	-12.76
348.736	-8.98
348.992	-9.04
349.248	-5.98
349.504	-8.66
349.761	-8.72
350.017	-8.7
350.273	-9.11
350.529	-9.08
350.785	-9.31
351.041	-9.66
351.297	-8.4
351.554	-10.2
351.81	-11.18
352.066	-13.03
352.322	-12.42
352.578	-11.07
352.834	-11.66
353.09	-11.29
353.346	-10.55
353.602	-10.76
353.858	-12.43
354.114	-13.27
354.369	-12.33
354.625	-9.55
354.881	-12.19
355.137	-9.13
355.393	-9.38
355.649	-8.74
355.905	-6.67
356.16	-5.08
356.416	-5.15
356.672	-12.87
356.928	-13.56
357.183	-13.78
357.439	-13.45
357.695	-14.73
357.951	-9.9
358.206	-10.36
358.462	-11.31
358.718	-12.5
358.973	-11.32
359.229	-11.28
359.484	-10.54
359.74	-9.31
359.996	-8.55
360.251	-4.82
360.507	-6.31
360.762	-6.45
361.018	-4.64
361.273	-7.01
361.529	-5.84
361.784	-6.1
362.04	-4.22
362.295	-4.38
362.55	-3.29
362.806	-0.61
363.061	-0.88
363.316	-0.68
363.572	-0.88
363.827	0.5
364.082	-1.93
364.338	-1
364.593	-0.27
364.848	1.22
365.104	-0.36
365.359	2.82
365.614	3.15
365.869	0.13
366.124	0.59
366.38	0.47
366.635	2.14
366.89	4.36
367.145	3.43
367.4	6.63
367.655	7.18
367.91	8.22
368.165	4.68
368.42	3.49
368.675	4.98
368.93	5.18
369.185	4.61
369.44	4.83
369.695	7.02
369.95	6.5
370.205	5.81
370.46	3.65
370.715	2.79
370.97	3.62
371.225	3.5
371.48	4.85
371.734	3.8
371.989	5.09
372.244	4.11
372.499	5.09
372.754	4.2
373.008	2.29
373.263	-0.95
373.518	0.77
373.773	-0.68
374.027	-0.64
374.282	0.65
374.537	1.47
374.791	1.13
375.046	1.68
375.301	0.47
375.555	-1.69
375.81	-0.91
376.064	0.01
376.319	2.53
376.573	1.54
376.828	-2.26
377.082	2.19
377.337	1.49
377.591	-0.04
377.846	-0.38
378.1	1.62
378.355	3.04
378.609	2.18
378.863	-0.3
379.118	1.02
379.372	-0.08
379.627	-0.68
379.881	-2.15
380.135	-2.14
380.389	-1.33
380.644	-0.34
380.898	0.93
381.152	1.03
381.407	1.65
381.661	3.79
381.915	3.67
382.169	4.53
382.423	2.51
382.677	-0.55
382.932	-0.34
383.186	0.65
383.44	1.9
383.694	2.91
383.948	0.81
384.202	-0.08
384.456	1.21
384.71	4
384.964	2.7
385.218	4.1
385.472	5.04
385.726	4.47
385.98	5.04
386.234	4.29
386.488	2.85
386.742	3.62
386.996	1.98
387.249	1.38
387.503	2.92
387.757	4
388.011	4.85
388.265	5.23
388.518	5.67
388.772	7.04
389.026	7.85
389.28	6.14
389.533	4.38
389.787	6.81
390.041	4.56
390.295	5.11
390.548	5.16
390.802	8.26
391.055	6.49
391.309	6.57
391.563	5.71
391.816	7.69
392.07	8.15
392.323	8.58
392.577	9.09
392.83	10.29
393.084	14.7
393.337	16.04
393.591	18.28
393.844	17.94
394.098	21.17
394.351	25.58
394.604	26.49
394.858	28.56
395.111	29.99
395.364	27.8
395.618	28.72
395.871	27.26
396.124	25.06
396.378	24.8
396.631	23.93
396.884	22.05
397.137	21.24
397.391	23.23
397.644	21.33
397.897	21.96
398.15	23.25
398.403	25.98
398.657	24.17
398.91	23.96
399.163	23.62
399.416	22.82
399.669	21.47
399.922	19.79
400.175	18.25
400.428	18.04
400.681	17.95
400.934	14.04
401.187	13.25
401.44	11.91
401.693	9.95
401.946	6.37
402.199	0.9
402.452	0.38
402.704	-4.21
402.957	-6.93
403.21	-5.62
403.463	-5.96
403.716	-4.08
403.969	-2.49
404.221	-4.93
404.474	-2.02
404.727	1.32
404.98	3.87
405.232	4.81
405.485	5.67
405.738	8.07
405.99	8.83
406.243	9.21
406.496	10.6
406.748	10.84
407.001	10.2
407.253	11.15
407.506	11.89
407.759	12.58
408.011	10.85
408.264	10.93
408.516	11.53
408.769	9.56
409.021	11.14
409.274	10.99
409.526	12.83
409.778	12.13
410.031	16.58
410.283	16.9
410.536	22.44
410.788	23.41
411.04	21.64
411.293	23.11
411.545	22.54
411.797	22.18
412.049	23.1
412.302	22.35
412.554	21.86
412.806	20.49
413.058	16.97
413.311	17.81
413.563	17.19
413.815	17.31
414.067	15.19
414.319	14.41
414.571	15.2
414.823	13.77
415.075	11.93
415.328	13.52
415.58	17.01
415.832	18.49
416.084	19.58
416.336	18
416.588	21.09
416.84	19.4
417.091	22.36
417.343	19.23
417.595	22.16
417.847	22.81
418.099	23.57
418.351	23.39
418.603	25.71
418.855	28.21
419.106	28.07
419.358	28.46
419.61	27.85
419.862	29.84
420.114	29.01
420.365	28.02
420.617	28.2
420.869	27.08
421.12	26.2
421.372	26.13
421.624	24.85
421.875	26.72
422.127	23.86
422.379	24.77
422.63	27.41
422.882	26.98
423.133	26.67
423.385	26.85
423.636	27.98
423.888	28.24
424.139	30.56
424.391	30.29
424.642	29.39
424.894	28.94
425.145	29.59
425.396	26.44
425.648	28.63
425.899	27.41
426.151	27.32
426.402	26.86
426.653	26.91
426.905	26.05
427.156	24.22
427.407	23.98
427.658	24.41
427.91	22.45
428.161	24.22
428.412	25.98
428.663	27.96
428.914	29.6
429.166	32.23
429.417	33.88
429.668	32.58
429.919	31.51
430.17	31.12
430.421	30.89
430.672	33.73
430.923	33.82
431.174	33.26
431.425	33.88
431.676	34.92
431.927	32.44
432.178	33.23
432.429	34.34
432.68	34.09
432.931	37.41
433.182	42.09
433.433	39.77
433.683	42.66
433.934	42.91
434.185	42.32
434.436	42.47
434.687	44.57
434.937	49.47
435.188	49.45
435.439	48.95
435.69	52.13
435.94	53.41
436.191	55.61
436.442	58.63
436.692	58.63
436.943	56.48
437.194	55.24
437.444	59.05
437.695	63.91
437.945	66.26
438.196	67.92
438.447	69.38
438.697	71.67
438.948	72.29
439.198	71.2
439.449	68.85
439.699	72.08
439.949	73.7
440.2	75.04
440.45	78.67
440.701	80.2
440.951	80.92
441.201	84.34
441.452	84.89
441.702	87.08
441.952	89.84
442.203	92.36
442.453	93.19
442.703	94.31
442.953	98.03
443.204	102.43
443.454	103.86
443.704	104.83
443.954	105.69
444.204	108.07
444.455	111.66
444.705	116.86
444.955	120.52
445.205	121.45
445.455	121.54
445.705	124.17
445.955	127.02
446.205	129.45
446.455	131.4
446.705	133.74
446.955	137.4
447.205	141.74
447.455	145.34
447.705	146.63
447.955	148.32
448.205	149.4
448.454	151.66
448.704	155.24
448.954	155.7
449.204	157.34
449.454	158.1
449.704	160.27
449.953	161.2
450.203	165.1
450.453	164.31
450.703	168.18
450.952	166.95
451.202	169.55
451.452	172.76
451.701	175.44
451.951	178.79
452.201	179.71
452.45	179.43
452.7	181.41
452.949	183.11
453.199	184.25
453.448	185.84
453.698	187.23
453.947	186.96
454.197	187.62
454.446	186.64
454.696	190.55
454.945	190.13
455.195	187.52
455.444	187.35
455.693	190.97
455.943	189.38
456.192	189.2
456.442	189.11
456.691	188.84
456.94	187.78
457.189	187.32
457.439	186.71
457.688	187.54
457.937	186.04
458.186	186.03
458.436	183.88
458.685	184.91
458.934	182.24
459.183	179.12
459.432	179.03
459.681	177.37
459.93	173.58
460.179	171.05
460.429	168.44
460.678	168.04
460.927	169.13
461.176	165.43
461.425	162.39
461.674	162.49
461.923	159.52
462.172	158.03
462.42	152.74
462.669	153.01
462.918	152.92
463.167	150.76
463.416	145.62
463.665	144.68
463.914	143.04
464.162	137.57
464.411	135.87
464.66	137.07
464.909	133.23
465.158	131.82
465.406	128.59
465.655	128.58
465.904	129.03
466.152	128.38
466.401	126.8
466.65	127.05
466.898	124.72
467.147	119.39
467.395	117.19
467.644	117.88
467.893	115.26
468.141	113.61
468.39	110.24
468.638	106.18
468.887	104.52
469.135	103.86
469.384	102.36
469.632	103.14
469.88	102.19
470.129	103.99
470.377	99.83
470.626	100.24
470.874	101.83
471.122	102.08
471.371	99.38
471.619	98.64
471.867	101.02
472.115	99.07
472.364	94.82
472.612	95.84
472.86	93.79
473.108	95.5
473.356	93.3
473.605	92.09
473.853	88.89
474.101	87.39
474.349	85.45
474.597	86.89
474.845	85.58
475.093	82.88
475.341	80.31
475.589	80.75
475.837	81.15
476.085	81.92
476.333	80.54
476.581	82.05
476.829	80.57
477.077	81.93
477.325	80.19
477.573	81.62
477.821	78.4
478.069	78.81
478.317	77.28
478.564	78.47
478.812	76.82
479.06	75.37
479.308	73.33
479.555	72.97
479.803	71.37
480.051	73.61
480.299	74.08
480.546	74.56
480.794	70.38
481.042	72.03
481.289	70.42
481.537	71.16
481.784	70.6
482.032	72.97
482.28	71.67
482.527	72.48
482.775	73.7
483.022	75.45
483.27	76.77
483.517	78.78
483.765	77.88
484.012	78.04
484.259	74.12
484.507	76.99
484.754	76.91
485.002	75.78
485.249	73.48
485.496	76.31
485.744	76.91
485.991	76.5
486.238	73.72
486.486	77.14
486.733	79.44
486.98	81.62
487.227	79.74
487.474	83.3
487.722	84.02
487.969	82.9
488.216	83.28
488.463	85.14
488.71	82.53
488.957	82.15
489.204	83.1
489.451	82.93
489.699	82.38
489.946	80.92
490.193	80.91
490.44	80.78
490.687	80.8
490.934	78.34
491.18	75.64
491.427	77.35
491.674	80.95
491.921	83.23
492.168	80.55
492.415	78.41
492.662	80.33
492.909	83.41
493.155	82.2
493.402	80.98
493.649	80.1
493.896	81.6
494.142	77.66
494.389	77.43
494.636	76.13
494.883	75.49
495.129	73.68
495.376	72.11
495.623	74.44
495.869	75.46
496.116	76.56
496.362	78.43
496.609	80.64
496.855	85.22
497.102	86.03
497.348	85.29
497.595	86.56
497.841	90.19
498.088	89.42
498.334	89.21
498.581	88.73
498.827	89.73
499.074	89.36
499.32	89.36
499.566	93.12
499.813	94.67
500.059	92.72
500.305	93.4
500.552	93.23
500.798	94.77
501.044	98.26
501.29	97.44
501.537	95.41
501.783	98.42
502.029	101.48
502.275	100.35
502.521	100.02
502.767	100.86
503.013	103.88
503.26	101.73
503.506	99.73
503.752	100.67
503.998	99.28
504.244	100.43
504.49	96.75
504.736	98.58
504.982	98.47
505.228	100.61
505.474	100.2
505.72	102.15
505.966	102.76
506.211	107.08
506.457	106.56
506.703	105.1
506.949	103.5
507.195	100.71
507.441	98.78
507.686	103.35
507.932	102.18
508.178	102.24
508.424	99.58
508.669	99.16
508.915	99.47
509.161	100.8
509.406	101.18
509.652	100.12
509.898	103.36
510.143	104.55
510.389	103.6
510.634	100.59
510.88	103.62
511.125	106.09
511.371	106.96
511.616	107.66
511.862	105.12
512.107	103.3
512.353	103.96
512.598	104.07
512.844	102.01
513.089	99.5
513.335	98.86
513.58	97.5
513.825	96.51
514.071	96.99
514.316	96.97
514.561	98.06
514.806	98.52
515.052	99.76
515.297	96.84
515.542	99.06
515.787	99.95
516.033	101.31
516.278	100.1
516.523	100.26
516.768	99.84
517.013	98.55
517.258	97.89
517.503	96.54
517.748	96.4
517.993	96.42
518.238	95.87
518.483	92.88
518.728	92.33
518.973	90.79
519.218	90.17
519.463	91.49
519.708	90.09
519.953	87.26
520.198	87.33
520.443	89.25
520.688	92.16
520.933	93.56
521.177	93.66
521.422	92.26
521.667	93.56
521.912	93.44
522.157	91.41
522.401	93.62
522.646	94.21
522.891	95.19
523.135	94.06
523.38	94.69
523.625	93.55
523.869	95.54
524.114	97.27
524.358	96.38
524.603	95.73
524.848	93.49
525.092	93.34
525.337	95.16
525.581	98.15
525.826	101.71
526.07	102.99
526.315	102.67
526.559	101.21
526.803	99.61
527.048	101.93
527.292	104.04
527.537	104.3
527.781	104.28
528.025	102.25
528.269	102.68
528.514	100.88
528.758	99.86
529.002	99.3
529.247	100.84
529.491	100.98
529.735	104.36
529.979	102.96
530.223	104.11
530.467	101.74
530.712	100.68
530.956	98.49
531.2	99.67
531.444	97.72
531.688	99.28
531.932	99.13
532.176	100.24
532.42	101.97
532.664	102.75
532.908	100.46
533.152	97.13
533.396	94.19
533.64	94.43
533.884	93.58
534.128	93.39
534.371	94.57
534.615	93.92
534.859	91.78
535.103	90.79
535.347	90.48
535.59	90.82
535.834	87.55
536.078	87.63
536.322	89.28
536.565	91.08
536.809	88.93
537.053	90
537.296	88.2
537.54	87.43
537.784	85.75
538.027	87.23
538.271	86.46
538.514	85.51
538.758	85.19
539.001	83.14
539.245	82.17
539.488	82.01
539.732	82.25
539.975	81.48
540.219	82.02
540.462	82.09
540.706	83.4
540.949	84.07
541.192	83.76
541.436	88.61
541.679	92.93
541.922	93.43
542.166	90.9
542.409	92.19
542.652	93.3
542.895	94.18
543.139	94.39
543.382	98.63
543.625	99.2
543.868	98.77
544.111	98.25
544.354	97.6
544.598	96.17
544.841	95.77
545.084	94.98
545.327	95
545.57	96.04
545.813	97.57
546.056	96.62
546.299	96.4
546.542	98.56
546.785	99.56
547.028	99.91
547.271	99.29
547.514	99.41
547.756	97.4
547.999	97.46
548.242	97.36
548.485	95.98
548.728	95.84
548.971	91.6
549.213	92.51
549.456	90.44
549.699	89.88
549.942	89.77
550.184	89
550.427	88.54
550.67	89.1
550.912	84.99
551.155	86.04
551.398	84.66
551.64	84.31
551.883	84.01
552.125	83.4
552.368	83.94
552.61	81.86
552.853	83.53
553.095	81.88
553.338	81.06
553.58	82.64
553.823	81.56
554.065	84.42
554.308	81.6
554.55	79.88
554.792	77.33
555.035	76.11
555.277	73.29
555.519	75.04
555.762	73.16
556.004	73.21
556.246	70.42
556.488	71.26
556.731	65.92
556.973	67.74
557.215	66.87
557.457	67.39
557.699	69.05
557.941	65.89
558.183	65.04
558.426	67.11
