Data from led2700K_USB4H112691__6__12-55-24-100.txt Node

Date: Tue Dec 17 12:55:24 CET 2024
User: Etudiants TP
Spectrometer: USB4H11269
Trigger mode: 4
Integration Time (sec): 1.000000E0
Scans to average: 1
Electric dark correction enabled: true
Nonlinearity correction enabled: false
Boxcar width: 0
XAxis mode: Wavelengths
Number of Pixels in Spectrum: 3648
>>>>>Begin Spectral Data<<<<<
286.377	-1608.17
286.631	-1608.17
286.884	-1608.17
287.138	-1634.79
287.391	-1659.37
287.644	-817.65
287.896	-606.71
288.149	800.24
288.401	499.19
288.653	-557.56
288.905	-502.26
289.157	867.83
289.409	267.77
289.661	-408.06
289.912	-756.21
290.163	394.75
290.414	818.68
290.665	-616.95
290.916	-639.48
291.166	560.63
291.417	1129.97
291.667	-702.97
291.917	-272.89
292.167	550.39
292.417	384.51
292.666	-768.5
292.916	-598.52
293.165	548.34
293.414	724.47
293.663	-877.04
293.912	-811.51
294.16	779.76
294.408	787.96
294.657	-793.08
294.905	-436.73
295.153	718.33
295.4	720.37
295.648	-803.32
295.895	-735.73
296.143	206.33
296.39	861.68
296.637	-629.24
296.884	-639.48
297.13	689.65
297.377	787.96
297.623	-545.27
297.869	-346.62
298.115	798.2
298.361	808.44
298.606	-756.21
298.852	-680.44
299.097	591.35
299.342	1097.2
299.587	-395.77
299.832	-545.27
300.077	769.52
300.322	691.7
300.566	-664.05
300.81	-516.6
301.054	703.99
301.298	699.89
301.542	-268.8
301.785	-350.71
302.029	972.27
302.272	767.48
302.515	-758.26
302.758	-555.51
303.001	835.06
303.244	685.56
303.486	-559.61
303.729	-852.47
303.971	1072.62
304.213	816.63
304.455	-836.08
304.696	-287.23
304.938	316.92
305.179	736.76
305.421	-508.41
305.662	-406.01
305.903	351.74
306.143	331.26
306.384	-385.53
306.625	-489.98
306.865	558.58
307.105	282.11
307.345	-496.12
307.585	-496.12
307.825	89.6
308.064	802.29
308.304	-627.19
308.543	-729.59
308.782	634.36
309.021	1023.47
309.26	-365.05
309.499	-578.04
309.737	978.42
309.976	671.22
310.214	-815.6
310.452	-619
310.69	1170.93
310.928	273.92
311.165	-647.67
311.403	-647.67
311.64	902.64
311.878	695.8
312.115	-492.02
312.351	-522.74
312.588	359.93
312.825	998.9
313.061	-766.45
313.298	19.97
313.534	327.16
313.77	828.92
314.006	-641.53
314.241	-621.05
314.477	785.91
314.713	1271.28
314.948	-561.66
315.183	216.57
315.418	921.07
315.653	589.3
315.888	-713.21
316.122	-446.97
316.357	351.74
316.591	849.4
316.825	-541.18
317.059	-590.33
317.293	990.7
317.527	493.05
317.76	-614.9
317.994	-487.93
318.227	685.56
318.46	1203.69
318.693	-688.63
318.926	-549.37
319.159	101.89
319.391	601.59
319.624	-803.32
319.856	-496.12
320.088	851.44
320.321	703.99
320.552	-242.17
320.784	-621.05
321.016	880.11
321.247	40.45
321.479	-416.25
321.71	-317.95
321.941	-109.05
322.172	1119.73
322.403	-623.09
322.633	-330.23
322.864	818.68
323.094	218.62
323.325	-27.14
323.555	-688.63
323.785	243.2
324.014	333.31
324.244	-477.69
324.474	-309.76
324.703	869.87
324.933	896.5
325.162	-406.01
325.391	-897.52
325.62	9.73
325.848	949.75
326.077	-506.36
326.306	-428.54
326.534	763.38
326.762	904.69
326.99	-588.28
327.218	-295.42
327.446	892.4
327.674	-23.04
327.901	-590.33
328.129	-700.92
328.356	839.16
328.583	310.78
328.81	-670.2
329.037	-424.44
329.264	542.2
329.491	884.21
329.717	-446.97
329.944	-684.53
330.17	458.23
330.396	267.77
330.622	-758.26
330.848	-379.39
331.074	613.88
331.299	1496.55
331.525	-668.15
331.75	-578.04
331.975	1035.76
332.201	245.24
332.426	-915.95
332.65	-700.92
332.875	-150.01
333.1	531.96
333.324	-676.34
333.549	-688.63
333.773	425.47
333.997	609.78
334.221	-477.69
334.445	-604.66
334.668	679.41
334.892	1132.01
335.116	-483.83
335.339	-557.56
335.562	-8.7
335.785	564.73
336.008	-358.91
336.231	-584.18
336.454	-31.23
336.676	919.03
336.899	-471.54
337.121	-279.04
337.343	99.84
337.566	548.34
337.788	-555.51
338.009	-707.06
338.231	120.32
338.453	507.38
338.674	3229.13
338.896	-532.98
339.117	-41.47
339.338	1119.73
339.559	-729.59
339.78	-569.85
340.001	116.22
340.222	880.11
340.442	-549.37
340.663	-240.12
340.883	783.86
341.103	402.94
341.323	-575.99
341.543	-360.95
341.763	818.68
341.983	337.4
342.202	-664.05
342.422	-655.86
342.641	1134.06
342.861	312.83
343.08	-164.35
343.299	-694.77
343.518	658.93
343.736	615.93
343.955	-555.51
344.174	-700.92
344.392	851.44
344.61	134.65
344.829	-635.38
345.047	-602.61
345.265	796.15
345.483	949.75
345.7	-635.38
345.918	-125.44
346.136	167.42
346.353	894.45
346.57	-715.25
346.788	-705.01
347.005	458.23
347.222	7.68
347.438	-123.39
347.655	-559.61
347.872	202.24
348.088	1039.86
348.305	-350.71
348.521	-614.9
348.737	232.96
348.953	949.75
349.169	-197.12
349.385	-522.74
349.601	493.05
349.817	-131.58
350.032	-113.15
350.248	-350.71
350.463	1377.77
350.678	-131.58
350.893	-643.57
351.108	-680.44
351.323	177.66
351.538	835.06
351.753	-659.96
351.967	-571.9
352.182	833.01
352.396	237.05
352.61	-678.39
352.824	-524.79
353.038	642.55
353.252	912.88
353.466	-416.25
353.68	-619
353.894	380.41
354.107	148.99
354.32	-422.39
354.534	-655.86
354.747	740.85
354.96	-6.66
355.173	-426.49
355.386	-729.59
355.599	452.09
355.811	204.28
356.024	-692.73
356.236	-477.69
356.449	349.69
356.661	443.9
356.873	-729.59
357.085	-870.9
357.297	689.65
357.509	624.12
357.721	-549.37
357.933	-571.9
358.144	294.4
358.356	302.59
358.567	-377.34
358.778	-758.26
358.989	916.98
359.2	228.86
359.411	-479.74
359.622	-365.05
359.833	613.88
360.044	278.01
360.254	-481.78
360.465	-729.59
360.675	540.15
360.885	454.14
361.096	-682.49
361.306	-541.18
361.516	228.86
361.726	474.62
361.935	-881.14
362.145	-516.6
362.355	536.06
362.564	572.92
362.774	-721.4
362.983	-797.17
363.192	941.55
363.401	196.09
363.61	-565.75
363.819	-303.61
364.028	441.85
364.237	908.79
364.445	-563.7
364.654	-365.05
364.862	556.54
365.071	138.75
365.279	-430.59
365.487	-625.14
365.695	593.4
365.903	478.71
366.111	-672.25
366.319	-508.41
366.527	605.69
366.734	312.83
366.942	-379.39
367.149	-760.31
367.357	-596.47
367.564	1043.95
367.771	-461.3
367.978	-766.45
368.185	249.34
368.392	386.55
368.599	-317.95
368.806	-737.78
369.013	-84.48
369.219	556.54
369.426	-803.32
369.632	-285.18
369.838	1113.58
370.044	585.21
370.251	-582.14
370.457	-549.37
370.663	837.11
370.868	392.7
371.074	-549.37
371.28	-629.24
371.485	-166.4
371.691	734.71
371.896	-569.85
372.102	-627.19
372.307	1113.58
372.512	912.88
372.717	-645.62
372.922	-201.21
373.127	95.74
373.332	372.22
373.537	-528.89
373.741	-481.78
373.946	665.08
374.151	335.35
374.355	-733.68
374.559	-494.07
374.764	181.76
374.968	-225.79
375.172	-653.81
375.376	-188.93
375.58	583.16
375.784	24.06
375.987	-780.79
376.191	-555.51
376.395	278.01
376.598	331.26
376.802	-655.86
377.005	-317.95
377.208	286.2
377.412	81.41
377.615	-848.37
377.818	-623.09
378.021	237.05
378.224	-82.43
378.426	-578.04
378.629	-758.26
378.832	781.81
379.034	683.51
379.237	-813.56
379.439	-778.74
379.642	714.23
379.844	622.07
380.046	-870.9
380.248	-735.73
380.45	-137.73
380.652	-170.49
380.854	-580.09
381.056	-649.72
381.258	304.64
381.459	423.42
381.661	-745.97
381.862	-393.72
382.064	-41.47
382.265	253.44
382.467	-737.78
382.668	-578.04
382.869	828.92
383.07	427.51
383.271	-457.21
383.472	-676.34
383.673	609.78
383.874	437.75
384.074	-414.2
384.275	-711.16
384.476	570.87
384.676	1058.29
384.876	-836.08
385.077	-602.61
385.277	796.15
385.477	966.13
385.677	-709.11
385.878	-532.98
386.078	376.31
386.278	275.96
386.477	-311.8
386.677	-266.75
386.877	531.96
387.077	654.84
387.276	-356.86
387.476	-483.83
387.675	380.41
387.875	1023.47
388.074	-694.77
388.273	-481.78
388.472	904.69
388.671	-195.07
388.87	-709.11
389.069	-213.5
389.268	-39.42
389.467	40.45
389.666	-756.21
389.865	-201.21
390.063	615.93
390.262	738.8
390.461	-696.82
390.659	-670.2
390.857	695.8
391.056	679.41
391.254	-647.67
391.452	-578.04
391.65	749.04
391.849	501.24
392.047	-397.82
392.245	-152.06
392.442	232.96
392.64	536.06
392.838	-350.71
393.036	-471.54
393.233	286.2
393.431	200.19
393.629	-868.85
393.826	-442.87
394.023	253.44
394.221	-147.97
394.418	-410.11
394.615	-270.84
394.812	-90.62
395.01	769.52
395.207	-606.71
395.404	-641.53
395.601	1009.14
395.797	357.88
395.994	-713.21
396.191	-551.42
396.388	286.2
396.584	574.97
396.781	-207.36
396.977	-66.05
397.174	615.93
397.37	-80.38
397.567	-342.52
397.763	-639.48
397.959	333.31
398.155	415.23
398.352	-496.12
398.548	-336.38
398.744	482.81
398.94	425.47
399.136	-684.53
399.331	-377.34
399.527	402.94
399.723	556.54
399.919	-385.53
400.114	-498.17
400.31	99.84
400.505	613.88
400.701	-489.98
400.896	-594.42
401.092	153.09
401.287	306.68
401.482	-725.49
401.678	-350.71
401.873	656.89
402.068	626.17
402.263	-408.06
402.458	-449.02
402.653	126.46
402.848	531.96
403.043	-432.63
403.237	-664.05
403.432	112.13
403.627	-129.53
403.822	-866.8
404.016	-623.09
404.211	185.85
404.405	591.35
404.6	-147.97
404.794	-217.6
404.989	538.1
405.183	183.81
405.377	-281.08
405.571	-178.69
405.766	675.32
405.96	370.17
406.154	-557.56
406.348	-469.5
406.542	443.9
406.736	572.92
406.93	-705.01
407.124	-365.05
407.318	321.02
407.511	337.4
407.705	-358.91
407.899	-598.52
408.092	525.82
408.286	441.85
408.48	-680.44
408.673	-616.95
408.867	116.22
409.06	425.47
409.253	-410.11
409.447	-414.2
409.64	617.97
409.833	484.86
410.026	-301.56
410.22	-348.67
410.413	646.65
410.606	497.14
410.799	-688.63
410.992	-555.51
411.185	355.83
411.378	968.18
411.571	-449.02
411.764	-365.05
411.956	548.34
412.149	515.58
412.342	-244.22
412.534	-438.78
412.727	716.28
412.92	335.35
413.112	-500.22
413.305	-352.76
413.497	796.15
413.69	585.21
413.882	-403.96
414.075	-233.98
414.267	484.86
414.459	368.12
414.652	-557.56
414.844	-414.2
415.036	419.32
415.228	742.9
415.42	-86.53
415.612	-500.22
415.804	882.16
415.997	589.3
416.188	-231.93
416.38	-311.8
416.572	71.17
416.764	593.4
416.956	-551.42
417.148	-516.6
417.34	304.64
417.531	-8.7
417.723	-504.31
417.915	-369.15
418.107	157.18
418.298	499.19
418.49	-352.76
418.681	-209.4
418.873	884.21
419.064	484.86
419.256	-344.57
419.447	-457.21
419.639	632.31
419.83	966.13
420.021	-295.42
420.213	-434.68
420.404	413.18
420.595	564.73
420.786	-139.77
420.978	-201.21
421.169	687.61
421.36	421.37
421.551	-354.81
421.742	-418.3
421.933	966.13
422.124	654.84
422.315	-320
422.506	-414.2
422.697	558.58
422.888	335.35
423.079	50.69
423.27	-442.87
423.461	427.51
423.652	421.37
423.842	-481.78
424.033	-238.08
424.224	703.99
424.415	1117.68
424.605	-209.4
424.796	-340.47
424.987	818.68
425.177	681.46
425.368	-532.98
425.558	-434.68
425.749	527.86
425.939	437.75
426.13	126.46
426.32	-107.01
426.511	462.33
426.701	337.4
426.892	-260.6
427.082	-303.61
427.272	355.83
427.463	585.21
427.653	-72.19
427.843	-41.47
428.034	1082.86
428.224	751.09
428.414	-311.8
428.604	-154.11
428.795	867.83
428.985	904.69
429.175	93.69
429.365	56.83
429.555	826.87
429.745	617.97
429.935	-45.57
430.126	3.58
430.316	943.6
430.506	957.94
430.696	-113.15
430.886	232.96
431.076	914.93
431.266	581.11
431.456	343.55
431.645	62.98
431.835	595.45
432.025	976.37
432.215	-141.82
432.405	198.14
432.595	974.32
432.785	812.53
432.975	9.73
433.164	-193.02
433.354	523.77
433.544	1134.06
433.734	-66.05
433.923	318.97
434.113	810.48
434.303	931.31
434.493	183.81
434.682	173.57
434.872	1132.01
435.062	552.44
435.251	179.71
435.441	192
435.631	1467.88
435.82	882.16
436.01	101.89
436.2	204.28
436.389	935.41
436.579	1639.91
436.768	601.59
436.958	638.45
437.147	1195.5
437.337	1412.59
437.527	515.58
437.716	445.95
437.906	1502.7
438.095	1187.31
438.285	361.98
438.474	638.45
438.664	1605.1
438.853	1465.83
439.043	577.02
439.232	374.27
439.422	1490.41
439.611	1555.94
439.8	472.57
439.99	902.64
440.179	1748.45
440.369	2039.26
440.558	454.14
440.748	814.58
440.937	1426.92
441.126	1353.2
441.316	994.8
441.505	738.8
441.695	2006.5
441.884	2303.45
442.073	828.92
442.263	828.92
442.452	1803.75
442.642	2018.79
442.831	878.07
443.02	1234.41
443.21	2252.25
443.399	2620.89
443.588	1109.49
443.778	1322.48
443.967	2624.98
444.156	2100.7
444.346	1129.97
444.535	1101.3
444.725	2665.94
444.914	2176.48
445.103	1224.17
445.293	1478.12
445.482	2639.32
445.671	2360.8
445.861	1523.18
446.05	1543.66
446.239	2434.52
446.429	2272.73
446.618	1412.59
446.807	1742.31
446.997	2678.23
447.186	2555.35
447.376	1590.76
447.565	1795.56
447.754	2969.04
447.944	2989.52
448.133	1752.55
448.322	1664.49
448.512	2469.34
448.701	3302.86
448.891	1852.9
449.08	1990.11
449.269	2213.34
449.459	2264.54
449.648	1824.23
449.838	1795.56
450.027	2426.33
450.217	2371.04
450.406	1637.86
450.595	2008.55
450.785	2788.82
450.974	2809.3
451.164	1785.32
451.353	1844.71
451.543	2692.57
451.732	2985.43
451.922	1605.1
452.111	1680.87
452.301	2213.34
452.49	2074.08
452.68	1527.27
452.869	2078.18
453.059	2242.01
453.249	2784.73
453.438	1138.16
453.628	1629.67
453.817	2301.4
454.007	2313.69
454.197	1076.72
454.386	1508.84
454.576	2639.32
454.765	2491.87
454.955	1510.89
455.145	1340.91
455.334	2164.19
455.524	1783.27
455.714	1492.46
455.904	1164.78
456.093	2817.49
456.283	2127.33
456.473	1150.45
456.663	1097.2
456.852	1920.48
457.042	2053.6
457.232	1099.25
457.422	1723.88
457.612	2018.79
457.802	2276.83
457.991	701.94
458.181	785.91
458.371	2022.88
458.561	2035.17
458.751	990.7
458.941	757.24
459.131	1652.2
459.321	1465.83
459.511	1123.82
459.701	777.72
459.891	1768.93
460.081	1326.57
460.271	753.14
460.461	740.85
460.651	2463.19
460.841	2139.62
461.032	814.58
461.222	747
461.412	1445.35
461.602	2461.15
461.792	364.03
461.983	458.23
462.173	1662.44
462.363	2158.05
462.554	697.85
462.744	671.22
462.934	1836.52
463.125	1592.81
463.315	476.66
463.505	736.76
463.696	1707.49
463.886	1230.32
464.077	495.1
464.267	495.1
464.458	1916.39
464.648	1258.99
464.839	687.61
465.03	572.92
465.22	1236.46
465.411	1555.94
465.601	486.9
465.792	515.58
465.983	1261.04
466.174	1512.94
466.364	153.09
466.555	527.86
466.746	1656.29
466.937	1230.32
467.128	388.6
467.319	503.29
467.51	1654.25
467.701	2244.06
467.891	368.12
468.082	327.16
468.274	1267.18
468.465	771.57
468.656	493.05
468.847	89.6
469.038	945.65
469.229	1146.35
469.42	462.33
469.612	216.57
469.803	1478.12
469.994	1392.11
470.185	450.04
470.377	175.61
470.568	1302
470.76	1308.14
470.951	261.63
471.142	452.09
471.334	1433.07
471.526	1218.03
471.717	560.63
471.909	-57.86
472.1	902.64
472.292	1220.08
472.484	81.41
472.675	228.86
472.867	1195.5
473.059	1605.1
473.251	173.57
473.443	159.23
473.635	1115.63
473.826	1285.61
474.018	42.5
474.21	288.25
474.402	1228.27
474.595	1623.53
474.787	241.15
474.979	286.2
475.171	1005.04
475.363	517.62
475.555	-82.43
475.748	105.98
475.94	1228.27
476.132	865.78
476.325	-51.71
476.517	523.77
476.71	1865.19
476.902	769.52
477.095	85.5
477.287	359.93
477.48	1297.9
477.673	1056.24
477.865	134.65
478.058	105.98
478.251	1244.65
478.444	1416.68
478.636	296.44
478.829	67.07
479.022	1222.13
479.215	1236.46
479.408	321.02
479.601	552.44
479.794	816.63
479.988	820.72
480.181	411.13
480.374	140.8
480.567	1265.13
480.76	1637.86
480.954	159.23
481.147	-186.88
481.341	1015.28
481.534	814.58
481.728	255.48
481.921	519.67
482.115	1302
482.308	1562.09
482.502	93.69
482.696	235
482.89	1877.48
483.084	1197.55
483.277	247.29
483.471	370.17
483.665	1537.51
483.859	2223.58
484.053	-182.78
484.247	26.11
484.442	1029.62
484.636	1213.93
484.83	206.33
485.024	284.16
485.219	1080.82
485.413	826.87
485.608	179.71
485.802	503.29
485.997	1629.67
486.191	1015.28
486.386	214.52
486.58	454.14
486.775	1281.52
486.97	1525.22
487.165	257.53
487.36	347.64
487.555	1248.75
487.75	1101.3
487.945	450.04
488.14	108.03
488.335	941.55
488.53	998.9
488.725	232.96
488.92	491
489.116	1727.97
489.311	1338.86
489.507	75.26
489.702	796.15
489.898	1691.11
490.093	972.27
490.289	732.66
490.485	239.1
490.68	900.59
490.876	1822.18
491.072	249.34
491.268	476.66
491.464	1750.5
491.66	1535.46
491.856	437.75
492.052	798.2
492.248	1580.52
492.445	1375.72
492.641	312.83
492.837	312.83
493.034	1766.89
493.23	1752.55
493.427	822.77
493.623	421.37
493.82	1523.18
494.017	2020.83
494.214	388.6
494.41	343.55
494.607	1621.48
494.804	1207.79
495.001	622.07
495.198	652.79
495.395	1750.5
495.593	1615.34
495.79	515.58
495.987	495.1
496.184	1021.42
496.382	1539.56
496.579	441.85
496.777	613.88
496.974	2149.86
497.172	1660.39
497.37	773.62
497.568	380.41
497.766	2317.79
497.963	1697.25
498.161	564.73
498.359	718.33
498.558	2180.57
498.756	1910.24
498.954	517.62
499.152	1064.43
499.351	1943.01
499.549	1777.12
499.747	742.9
499.946	609.78
500.145	1633.77
500.343	1646.05
500.542	577.02
500.741	749.04
500.94	1877.48
501.139	2094.56
501.338	703.99
501.537	1009.14
501.736	2223.58
501.935	1945.06
502.134	581.11
502.334	712.18
502.533	2115.04
502.733	1916.39
502.932	849.4
503.132	859.63
503.331	1723.88
503.531	2049.5
503.731	919.03
503.931	703.99
504.131	1629.67
504.331	2094.56
504.531	865.78
504.731	968.18
504.931	1951.2
505.132	1836.52
505.332	953.84
505.532	790
505.733	2006.5
505.933	2614.74
506.134	919.03
506.335	636.41
506.536	1498.6
506.736	2219.49
506.937	925.17
507.138	716.28
507.34	2663.9
507.541	1893.86
507.742	1162.73
507.943	663.03
508.145	1908.19
508.346	1363.44
508.548	685.56
508.749	736.76
508.951	1433.07
509.153	1613.29
509.354	785.91
509.556	935.41
509.758	2033.12
509.96	1478.12
510.163	1029.62
510.365	1048.05
510.567	1646.05
510.769	1613.29
510.972	845.3
511.174	1220.08
511.377	1484.27
511.58	2670.04
511.782	804.34
511.985	884.21
512.188	2504.15
512.391	2065.89
512.594	816.63
512.797	1072.62
513.001	2178.53
513.204	2469.34
513.407	955.89
513.611	949.75
513.814	2153.95
514.018	2330.08
514.222	1058.29
514.425	957.94
514.629	2055.65
514.833	2008.55
515.037	1060.34
515.241	757.24
515.445	1519.08
515.65	1512.94
515.854	1125.87
516.059	976.37
516.263	2078.18
516.468	2108.9
516.672	1000.94
516.877	982.51
517.082	1412.59
517.287	2053.6
517.492	1125.87
517.697	951.79
517.902	2196.96
518.107	1596.9
518.313	1025.52
518.518	931.31
518.724	2463.19
518.929	1852.9
519.135	1187.31
519.341	648.69
519.547	1951.2
519.753	2082.27
519.959	902.64
520.165	855.54
520.371	2237.92
520.577	2719.19
520.784	781.81
520.99	1150.45
521.197	2108.9
521.404	1936.87
521.61	720.37
521.817	792.05
522.024	2450.91
522.231	1748.45
522.438	630.26
522.645	1277.42
522.853	1760.74
523.06	2141.66
523.268	1091.06
523.475	1068.53
523.683	2088.42
523.891	2055.65
524.098	736.76
524.306	1058.29
524.514	1938.91
524.722	1883.62
524.931	1019.38
525.139	990.7
525.347	1410.54
525.556	1850.85
525.764	1113.58
525.973	1353.2
526.182	2104.8
526.391	1705.45
526.6	966.13
526.809	1080.82
527.018	2063.84
527.227	2117.09
527.436	1138.16
527.646	1121.77
527.855	2178.53
528.065	1908.19
528.275	998.9
528.484	990.7
528.694	2231.77
528.904	2049.5
529.114	986.61
529.325	1150.45
529.535	1568.23
529.745	2229.73
529.956	1005.04
530.166	933.36
530.377	2178.53
530.588	2661.85
530.799	1351.15
531.01	939.51
531.221	2393.56
531.432	2526.68
531.643	1209.84
531.855	1615.34
532.066	2379.23
532.278	2151.9
532.489	1318.38
532.701	1025.52
532.913	2620.89
533.125	2293.21
533.337	884.21
533.549	1048.05
533.762	2500.06
533.974	1842.66
534.186	982.51
534.399	1316.33
534.612	2528.73
534.825	2184.67
535.037	1410.54
535.25	1527.27
535.464	1893.86
535.677	2657.75
535.89	1095.15
536.104	1457.64
536.317	2145.76
536.531	2309.6
536.744	1570.28
536.958	1381.87
537.172	2368.99
537.386	2194.91
537.6	1322.48
537.815	1310.19
538.029	2489.82
538.244	2797.01
538.458	1115.63
538.673	1246.7
538.888	2637.27
539.103	2848.21
539.318	1687.01
539.533	1261.04
539.748	2313.69
539.963	2051.55
540.179	1154.54
540.394	1179.12
540.61	1959.39
540.826	2289.12
541.042	1310.19
541.258	1461.74
541.474	3114.45
541.69	2321.88
541.906	1480.17
542.123	1418.73
542.339	2414.04
542.556	2112.99
542.773	1504.75
542.99	1437.16
543.207	2239.97
543.424	2268.64
543.641	1711.59
543.858	1857
544.076	2260.45
544.293	2088.42
544.511	1345
544.729	1437.16
544.947	2313.69
545.165	2420.19
545.383	1404.39
545.601	1412.59
545.819	2657.75
546.038	2293.21
546.256	1635.82
546.475	1414.63
546.694	3272.14
546.913	2995.67
547.132	2153.95
547.351	1541.61
547.57	2010.59
547.79	2180.57
548.009	1531.37
548.229	1457.64
548.449	2336.22
548.668	2858.45
548.888	1674.73
549.109	1568.23
549.329	2760.15
549.549	2966.99
549.77	1660.39
