Data from led2700K_USB4H112691__7__12-55-32-100.txt Node

Date: Tue Dec 17 12:55:32 CET 2024
User: Etudiants TP
Spectrometer: USB4H11269
Trigger mode: 4
Integration Time (sec): 1.000000E0
Scans to average: 1
Electric dark correction enabled: true
Nonlinearity correction enabled: false
Boxcar width: 0
XAxis mode: Wavelengths
Number of Pixels in Spectrum: 3648
>>>>>Begin Spectral Data<<<<<
286.377	-1674.56
286.631	-1674.56
286.884	-1674.56
287.138	-1639.74
287.391	-1682.75
287.644	-859.46
287.896	-613.71
288.149	731.81
288.401	479.91
288.653	-513.36
288.905	-474.45
289.157	914.08
289.409	303.78
289.661	-427.34
289.912	-802.12
290.163	557.73
290.414	703.14
290.665	-689.48
290.916	-595.28
291.166	680.61
291.417	1112.73
291.667	-609.61
291.917	-265.55
292.167	574.11
292.417	414.37
292.666	-804.17
292.916	-677.19
293.165	555.68
293.414	635.55
293.663	-998.73
293.912	-906.57
294.16	707.23
294.408	733.86
294.657	-728.39
294.905	-394.58
295.153	551.59
295.4	567.97
295.648	-806.22
295.895	-750.92
296.143	127.66
296.39	846.49
296.637	-677.19
296.884	-755.02
297.13	694.94
297.377	819.87
297.623	-523.6
297.869	-380.24
298.115	836.25
298.361	821.92
298.606	-763.21
298.852	-650.57
299.097	600.74
299.342	1032.86
299.587	-437.58
299.832	-628.04
300.077	705.18
300.322	598.69
300.566	-773.45
300.81	-482.64
301.054	475.81
301.298	871.07
301.542	-265.55
301.785	-390.48
302.029	993.95
302.272	854.69
302.515	-834.89
302.758	-486.73
303.001	666.27
303.244	828.06
303.486	-619.85
303.729	-865.61
303.971	1000.09
304.213	807.58
304.455	-890.18
304.696	-349.52
304.938	256.68
305.179	909.98
305.421	-535.89
305.662	-488.78
305.903	385.7
306.143	342.69
306.384	-392.53
306.625	-554.32
306.865	459.43
307.105	287.4
307.345	-494.93
307.585	-548.17
307.825	166.57
308.064	715.42
308.304	-650.57
308.543	-855.37
308.782	590.5
309.021	893.6
309.26	-367.95
309.499	-621.9
309.737	854.69
309.976	721.57
310.214	-746.83
310.452	-671.05
310.69	1143.45
310.928	254.63
311.165	-664.91
311.403	-546.12
311.64	922.27
311.878	565.92
312.115	-587.08
312.351	-482.64
312.588	432.8
312.825	971.42
313.061	-873.8
313.298	33.45
313.534	305.83
313.77	770.72
314.006	-578.89
314.241	-707.91
314.477	715.42
314.713	1274.52
314.948	-519.5
315.183	193.19
315.418	948.89
315.653	606.88
315.888	-769.35
316.122	-511.31
316.357	283.3
316.591	889.5
316.825	-556.36
317.059	-658.76
317.293	975.52
317.527	463.52
317.76	-652.62
317.994	-494.93
318.227	690.85
318.46	1168.02
318.693	-703.82
318.926	-456.01
319.159	51.88
319.391	602.79
319.624	-793.93
319.856	-548.17
320.088	750.24
320.321	662.18
320.552	-333.14
320.784	-582.99
321.016	813.73
321.247	88.75
321.479	-382.29
321.71	-406.86
321.941	-152.91
322.172	1125.02
322.403	-671.05
322.633	-400.72
322.864	776.86
323.094	268.97
323.325	74.41
323.555	-662.86
323.785	221.86
324.014	303.78
324.244	-464.21
324.474	-310.61
324.703	854.69
324.933	840.35
325.162	-449.87
325.391	-925
325.62	-23.89
325.848	836.25
326.077	-605.52
326.306	-394.58
326.534	746.14
326.762	1024.67
326.99	-537.93
327.218	-326.99
327.446	897.69
327.674	-32.08
327.901	-683.34
328.129	-716.11
328.356	811.68
328.583	254.63
328.81	-677.19
329.037	-445.77
329.264	459.43
329.491	869.02
329.717	-490.83
329.944	-656.72
330.17	436.9
330.396	209.58
330.622	-771.4
330.848	-363.86
331.074	524.96
331.299	1479.32
331.525	-695.63
331.75	-656.72
331.975	885.41
332.201	299.69
332.426	-920.9
332.65	-648.52
332.875	-71
333.1	377.51
333.324	-783.69
333.549	-640.33
333.773	397.99
333.997	535.2
334.221	-605.52
334.445	-589.13
334.668	631.46
334.892	1200.79
335.116	-392.53
335.339	-630.09
335.562	47.79
335.785	500.39
336.008	-390.48
336.231	-662.86
336.454	-154.96
336.676	924.32
336.899	-558.41
337.121	-349.52
337.343	90.79
337.566	606.88
337.788	-626
338.009	-640.33
338.231	144.04
338.453	494.24
338.674	3336.82
338.896	-496.97
339.117	-56.66
339.338	1024.67
339.559	-742.73
339.78	-609.61
340.001	37.55
340.222	899.74
340.442	-587.08
340.663	-206.16
340.883	719.52
341.103	463.52
341.323	-603.47
341.543	-376.14
341.763	772.77
341.983	385.7
342.202	-742.73
342.422	-654.67
342.641	1139.35
342.861	338.6
343.08	-269.65
343.299	-597.32
343.518	780.96
343.736	643.74
343.955	-617.8
344.174	-738.63
344.392	871.07
344.61	60.07
344.829	-724.3
345.047	-539.98
345.265	615.07
345.483	924.32
345.7	-671.05
345.918	-292.18
346.136	168.62
346.353	924.32
346.57	-806.22
346.788	-679.24
347.005	365.22
347.222	21.16
347.438	-93.52
347.655	-564.56
347.872	137.9
348.088	1125.02
348.305	-400.72
348.521	-607.56
348.737	74.41
348.953	946.84
349.169	-195.92
349.385	-521.55
349.601	402.08
349.817	70.31
350.032	-195.92
350.248	-392.53
350.463	1266.33
350.678	-261.46
350.893	-699.72
351.108	-728.39
351.323	191.14
351.538	791.2
351.753	-593.23
351.967	-556.36
352.182	842.4
352.396	197.29
352.61	-707.91
352.824	-564.56
353.038	707.23
353.252	834.21
353.466	-425.29
353.68	-564.56
353.894	441
354.107	213.67
354.32	-337.23
354.534	-642.38
354.747	740
354.96	-42.32
355.173	-400.72
355.386	-800.07
355.599	516.77
355.811	328.36
356.024	-687.43
356.236	-400.72
356.449	297.64
356.661	342.69
356.873	-705.87
357.085	-922.95
357.297	817.82
357.509	635.55
357.721	-621.9
357.933	-695.63
358.144	228.01
358.356	205.48
358.567	-390.48
358.778	-740.68
358.989	918.17
359.2	131.75
359.411	-474.45
359.622	-347.47
359.833	541.35
360.044	363.17
360.254	-548.17
360.465	-634.19
360.675	463.52
360.885	389.8
361.096	-765.26
361.306	-515.41
361.516	178.86
361.726	451.24
361.935	-857.42
362.145	-628.04
362.355	549.54
362.564	469.67
362.774	-824.65
362.983	-822.6
363.192	928.41
363.401	86.7
363.61	-646.48
363.819	-331.09
364.028	443.04
364.237	957.08
364.445	-580.94
364.654	-380.24
364.862	420.52
365.071	180.9
365.279	-482.64
365.487	-613.71
365.695	639.65
365.903	447.14
366.111	-720.2
366.319	-572.75
366.527	688.8
366.734	289.45
366.942	-406.86
367.149	-759.11
367.357	-519.5
367.564	1086.11
367.771	-535.89
367.978	-662.86
368.185	254.63
368.392	309.93
368.599	-324.94
368.806	-566.6
369.013	-64.85
369.219	563.87
369.426	-824.65
369.632	-277.84
369.838	1184.41
370.044	713.38
370.251	-494.93
370.457	-570.7
370.663	893.6
370.868	461.48
371.074	-576.84
371.28	-638.28
371.485	-118.1
371.691	735.9
371.896	-677.19
372.102	-826.7
372.307	1024.67
372.512	862.88
372.717	-664.91
372.922	-224.59
373.127	141.99
373.332	397.99
373.537	-558.41
373.741	-494.93
373.946	508.58
374.151	385.7
374.355	-806.22
374.559	-443.73
374.764	287.4
374.968	-333.14
375.172	-617.8
375.376	-283.98
375.58	492.2
375.784	53.93
375.987	-757.07
376.191	-589.13
376.395	137.9
376.598	164.52
376.802	-718.15
377.005	-232.79
377.208	213.67
377.412	144.04
377.615	-847.18
377.818	-675.15
378.021	240.3
378.224	-77.14
378.426	-652.62
378.629	-820.55
378.832	721.57
379.034	590.5
379.237	-881.99
379.439	-939.33
379.642	789.15
379.844	563.87
380.046	-931.14
380.248	-613.71
380.45	-36.18
380.652	-95.57
380.854	-554.32
381.056	-687.43
381.258	275.11
381.459	520.87
381.661	-816.46
381.862	-357.71
382.064	-130.39
382.265	246.44
382.467	-658.76
382.668	-486.73
382.869	789.15
383.07	363.17
383.271	-462.16
383.472	-636.24
383.673	778.91
383.874	328.36
384.074	-447.82
384.275	-810.31
384.476	533.15
384.676	1163.93
384.876	-761.16
385.077	-654.67
385.277	746.14
385.477	895.65
385.677	-728.39
385.878	-548.17
386.078	281.25
386.278	303.78
386.477	-314.7
386.677	-157.01
386.877	582.31
387.077	586.4
387.276	-415.05
387.476	-509.26
387.675	361.13
387.875	848.54
388.074	-671.05
388.273	-597.32
388.472	803.49
388.671	-50.52
388.87	-724.3
389.069	-159.06
389.268	-154.96
389.467	0.68
389.666	-724.3
389.865	-214.35
390.063	623.27
390.262	737.95
390.461	-632.14
390.659	-697.67
390.857	723.62
391.056	660.13
391.254	-671.05
391.452	-662.86
391.65	713.38
391.849	377.51
392.047	-441.68
392.245	-228.69
392.442	295.59
392.64	492.2
392.838	-269.65
393.036	-464.21
393.233	324.26
393.431	238.25
393.629	-812.36
393.826	-552.27
394.023	340.65
394.221	-234.83
394.418	-449.87
394.615	-294.22
394.812	-58.71
395.01	651.94
395.207	-621.9
395.404	-656.72
395.601	930.46
395.797	424.61
395.994	-787.79
396.191	-482.64
396.388	287.4
396.584	696.99
396.781	-320.85
396.977	-21.84
397.174	623.27
397.37	-13.65
397.567	-449.87
397.763	-709.96
397.959	297.64
398.155	361.13
398.352	-492.88
398.548	-343.38
398.744	533.15
398.94	352.93
399.136	-808.26
399.331	-316.75
399.527	279.21
399.723	557.73
399.919	-326.99
400.114	-539.98
400.31	213.67
400.505	506.53
400.701	-501.07
400.896	-564.56
401.092	232.1
401.287	318.12
401.482	-728.39
401.678	-466.25
401.873	527.01
402.068	631.46
402.263	-449.87
402.458	-550.22
402.653	236.2
402.848	414.37
403.043	-474.45
403.237	-701.77
403.432	84.65
403.627	-195.92
403.822	-810.31
404.016	-548.17
404.211	117.42
404.405	653.98
404.6	-302.42
404.794	-281.94
404.989	500.39
405.183	164.52
405.377	-413.01
405.571	-187.73
405.766	461.48
405.96	352.93
406.154	-507.21
406.348	-494.93
406.542	461.48
406.736	516.77
406.93	-648.52
407.124	-390.48
407.318	287.4
407.511	387.75
407.705	-347.47
407.899	-617.8
408.092	520.87
408.286	397.99
408.48	-679.24
408.673	-613.71
408.867	-19.8
409.06	338.6
409.253	-400.72
409.447	-439.63
409.64	656.03
409.833	469.67
410.026	-419.15
410.22	-372.05
410.413	660.13
410.606	305.83
410.799	-806.22
410.992	-539.98
411.185	412.32
411.378	963.23
411.571	-466.25
411.764	-431.44
411.956	545.44
412.149	451.24
412.342	-253.27
412.534	-449.87
412.727	557.73
412.92	457.38
413.112	-431.44
413.305	-226.64
413.497	754.34
413.69	629.41
413.882	-480.59
414.075	-228.69
414.267	461.48
414.459	299.69
414.652	-662.86
414.844	-535.89
415.036	471.72
415.228	842.4
415.42	-228.69
415.612	-433.49
415.804	950.94
415.997	463.52
416.188	-322.9
416.38	-216.4
416.572	205.48
416.764	647.84
416.956	-632.14
417.148	-519.5
417.34	322.21
417.531	-85.33
417.723	-527.69
417.915	-480.59
418.107	127.66
418.298	473.76
418.49	-355.66
418.681	-286.03
418.873	756.38
419.064	445.09
419.256	-310.61
419.447	-478.54
419.639	600.74
419.83	811.68
420.021	-269.65
420.213	-462.16
420.404	328.36
420.595	486.05
420.786	-261.46
420.978	-236.88
421.169	666.27
421.36	324.26
421.551	-388.43
421.742	-564.56
421.933	1045.15
422.124	705.18
422.315	-314.7
422.506	-478.54
422.697	680.61
422.888	352.93
423.079	-56.66
423.27	-347.47
423.461	533.15
423.652	242.34
423.842	-439.63
424.033	-326.99
424.224	617.12
424.415	1028.76
424.605	-283.98
424.796	-408.91
424.987	690.85
425.177	606.88
425.368	-638.28
425.558	-564.56
425.749	490.15
425.939	375.46
426.13	6.83
426.32	-89.43
426.511	402.08
426.701	225.96
426.892	-281.94
427.082	-363.86
427.272	328.36
427.463	549.54
427.653	-175.44
427.843	-44.37
428.034	1104.54
428.224	746.14
428.414	-318.8
428.604	-228.69
428.795	713.38
428.985	789.15
429.175	86.7
429.365	-73.04
429.555	674.46
429.745	604.83
429.935	-183.63
430.126	37.55
430.316	938.65
430.506	996
430.696	-11.61
430.886	82.6
431.076	873.12
431.266	637.6
431.456	244.39
431.645	-64.85
431.835	600.74
432.025	885.41
432.215	-200.02
432.405	94.89
432.595	932.51
432.785	760.48
432.975	-130.39
433.164	-261.46
433.354	641.7
433.544	1071.77
433.734	-136.53
433.923	221.86
434.113	834.21
434.303	858.78
434.493	166.57
434.682	191.14
434.872	991.9
435.062	488.1
435.251	217.77
435.441	172.71
435.631	1499.8
435.82	996
436.01	66.22
436.2	246.44
436.389	934.56
436.579	1641.11
436.768	565.92
436.958	606.88
437.147	1057.43
437.337	1524.37
437.527	598.69
437.716	383.65
437.906	1639.06
438.095	1301.14
438.285	443.04
438.474	570.02
438.664	1591.95
438.853	1532.56
439.043	684.7
439.232	615.07
439.422	1614.48
439.611	1573.52
439.8	549.54
439.99	1024.67
440.179	1786.51
440.369	1974.92
440.558	594.59
440.748	783.01
440.937	1419.93
441.126	1301.14
441.316	1215.13
441.505	946.84
441.695	1962.64
441.884	2368.13
442.073	1069.72
442.263	914.08
442.452	1837.71
442.642	2181.77
442.831	1204.89
443.02	1507.99
443.21	2482.82
443.399	2966.14
443.588	1483.41
443.778	1442.45
443.967	2777.73
444.156	2482.82
444.346	1278.62
444.535	1481.36
444.725	2900.61
444.914	2390.66
445.103	1548.95
445.293	1778.32
445.482	3138.17
445.671	2787.97
445.861	1837.71
446.05	2083.47
446.239	2890.37
446.429	2609.79
446.618	1694.35
446.807	2298.5
446.997	3201.66
447.186	3248.76
447.376	2208.39
447.565	2304.65
447.754	3342.97
447.944	3594.87
448.133	2290.31
448.322	1981.07
448.512	2888.32
448.701	3736.18
448.891	2331.27
449.08	2511.49
449.269	2710.15
449.459	3003
449.648	2282.12
449.838	2337.42
450.027	3105.4
450.217	2914.94
450.406	2259.59
450.595	2527.88
450.785	3428.98
450.974	3453.56
451.164	2474.63
451.353	2531.97
451.543	3375.74
451.732	3695.22
451.922	2237.06
452.111	2400.9
452.301	2929.28
452.49	2935.42
452.68	2038.41
452.869	2822.78
453.059	2982.53
453.249	3467.89
453.438	1903.25
453.628	2386.57
453.817	3160.7
454.007	3031.68
454.197	1952.4
454.386	2144.91
454.576	3494.52
454.765	3273.34
454.955	2230.92
455.145	1974.92
455.334	2933.37
455.524	2560.64
455.714	2181.77
455.904	1884.81
456.093	3656.31
456.283	2892.41
456.473	1864.33
456.663	1788.56
456.852	2892.41
457.042	2912.89
457.232	1784.46
457.422	2466.44
457.612	2808.45
457.802	2904.7
457.991	1471.12
458.181	1530.52
458.371	2863.74
458.561	2738.82
458.751	1720.98
458.941	1540.76
459.131	2443.91
459.321	2200.2
459.511	1909.39
459.701	1581.71
459.891	2478.72
460.081	2011.79
460.271	1536.66
460.461	1188.5
460.651	3105.4
460.841	3023.48
461.032	1505.94
461.222	1393.3
461.412	2228.87
461.602	3113.6
461.792	1198.74
461.983	1327.77
462.173	2433.67
462.363	2904.7
462.554	1372.82
462.744	1491.6
462.934	2493.06
463.125	2429.57
463.315	1335.96
463.505	1393.3
463.696	2466.44
463.886	1981.07
464.077	1125.02
464.267	1290.9
464.458	2726.53
464.648	1909.39
464.839	1424.02
465.03	1350.29
465.22	1927.82
465.411	2351.75
465.601	1155.74
465.792	1184.41
465.983	2112.14
466.174	2419.33
466.364	922.27
466.555	1262.23
466.746	2468.49
466.937	1972.88
467.128	1018.52
467.319	1168.02
467.51	2441.86
467.701	3070.59
467.891	1200.79
468.082	1002.14
468.274	2073.23
468.465	1383.06
468.656	1258.14
468.847	821.92
469.038	1718.93
469.229	1870.48
469.42	1223.32
469.612	989.85
469.803	2226.82
469.994	2196.11
470.185	1122.97
470.377	952.99
470.568	1970.83
470.76	2003.6
470.951	1086.11
471.142	1098.39
471.334	2206.35
471.526	2079.37
471.717	1284.76
471.909	762.53
472.1	1929.87
472.292	1948.3
472.484	766.62
472.675	864.93
472.867	1835.66
473.059	2273.93
473.251	916.12
473.443	932.51
473.635	1852.05
473.826	2126.47
474.018	926.36
474.21	1008.28
474.402	1882.77
474.595	2212.49
474.787	1000.09
474.979	1188.5
475.171	1690.26
475.363	1237.66
475.555	617.12
475.748	977.56
475.94	2196.11
476.132	1659.54
476.325	819.87
476.517	1376.92
476.71	2671.23
476.902	1548.95
477.095	819.87
477.287	1282.71
477.48	2114.19
477.673	1897.1
477.865	1065.63
478.058	975.52
478.251	2163.34
478.444	2341.51
478.636	1049.24
478.829	858.78
479.022	1997.45
479.215	2163.34
479.408	1043.1
479.601	1430.16
479.794	1512.08
479.988	1833.61
480.181	1241.75
480.374	1161.88
480.567	2114.19
480.76	2642.56
480.954	1129.11
481.147	719.52
481.341	1761.94
481.534	1761.94
481.728	1194.65
481.921	1338.01
482.115	2384.52
482.308	2550.4
482.502	924.32
482.696	1172.12
482.89	2757.25
483.084	2253.45
483.277	1270.42
483.471	1350.29
483.665	2624.13
483.859	3379.83
484.053	866.97
484.247	854.69
484.442	2263.69
484.636	2099.85
484.83	1082.01
485.024	1231.51
485.219	2200.2
485.413	1991.31
485.608	1151.64
485.802	1385.11
485.997	2646.66
486.191	2171.53
486.386	1301.14
486.58	1483.41
486.775	2249.35
486.97	2646.66
487.165	1354.39
487.36	1507.99
487.555	2394.76
487.75	2284.17
487.945	1655.44
488.14	1165.98
488.335	2161.29
488.53	2132.62
488.725	1395.35
488.92	1659.54
489.116	2949.76
489.311	2574.98
489.507	1262.23
489.702	2044.56
489.898	2900.61
490.093	2245.26
490.289	2017.93
490.485	1620.63
490.68	2067.08
490.876	3035.77
491.072	1606.29
491.268	1839.76
491.464	3033.72
491.66	2884.22
491.856	1886.86
492.052	2099.85
492.248	3091.07
492.445	2835.07
492.641	1720.98
492.837	1843.85
493.034	3048.06
493.23	3373.69
493.427	2335.37
493.623	1866.38
493.82	3146.36
494.017	3560.05
494.214	2048.65
494.41	1897.1
494.607	3076.73
494.804	2650.75
495.001	2189.96
495.198	2179.72
495.395	3357.3
495.593	3441.27
495.79	2105.99
495.987	2048.65
496.184	2620.03
496.382	3211.9
496.579	2083.47
496.777	2257.54
496.974	3828.34
497.172	3205.75
497.37	2372.23
497.568	2052.75
497.766	4139.63
497.963	3494.52
498.161	2458.25
498.359	2603.65
498.558	3975.79
498.756	3658.35
498.954	2306.7
499.152	2855.55
499.351	3861.1
499.549	3613.3
499.747	2640.51
499.946	2499.2
500.145	3601.01
500.343	3539.57
500.542	2452.1
500.741	2638.47
500.94	3940.97
501.139	4033.13
501.338	2603.65
501.537	2982.53
501.736	4264.55
501.935	3940.97
502.134	2560.64
502.334	2759.3
502.533	3996.27
502.733	3908.21
502.932	2804.35
503.132	2839.17
503.331	3674.74
503.531	4158.06
503.731	2914.94
503.931	2820.74
504.131	3564.15
504.331	4194.92
504.531	2863.74
504.731	2935.42
504.931	4080.24
505.132	4070
505.332	2970.24
505.532	2886.27
505.733	4215.4
505.933	4575.84
506.134	3103.36
506.335	2955.9
506.536	3963.5
506.736	4412.01
506.937	3050.11
507.138	2863.74
507.34	4917.86
507.541	4162.16
507.742	3361.4
507.943	3111.55
508.145	4276.84
508.346	3629.68
508.548	2929.28
508.749	3058.3
508.951	3889.78
509.153	4039.28
509.354	3273.34
509.556	3283.58
509.758	4354.66
509.96	3736.18
510.163	3621.49
510.365	3543.67
510.567	4004.46
510.769	4074.09
510.972	3015.29
511.174	3592.82
511.377	3963.5
511.58	5163.61
511.782	3236.47
511.985	3248.76
512.188	4715.11
512.391	4637.28
512.594	3287.67
512.797	3439.22
513.001	4653.67
513.204	4973.15
513.407	3441.27
513.611	3297.91
513.814	4452.97
514.018	4751.97
514.222	3590.77
514.425	3498.61
514.629	4602.47
514.833	4293.23
515.037	3469.94
515.241	3388.02
515.445	4164.2
515.65	4143.72
515.854	3451.51
516.059	3490.42
516.263	4571.75
516.468	4567.65
516.672	3383.93
516.877	3408.5
517.082	4121.2
517.287	4522.6
517.492	3775.09
517.697	3463.8
517.902	4661.86
518.107	4203.11
518.313	3541.62
518.518	3510.9
518.724	4989.53
518.929	4530.79
519.135	3680.88
519.341	3287.67
519.547	4567.65
519.753	4794.98
519.959	3383.93
520.165	3508.85
520.371	4831.84
520.577	5155.42
520.784	3250.81
520.99	3762.8
521.197	4438.63
521.404	4498.02
521.61	3154.55
521.817	3226.23
522.024	4913.76
522.231	4340.33
522.438	3027.58
522.645	4026.99
522.853	4338.28
523.06	4680.29
523.268	3476.09
523.475	3615.35
523.683	4588.13
523.891	4590.18
524.098	3256.95
524.306	3422.84
524.514	4373.1
524.722	4295.27
524.931	3570.29
525.139	3377.78
525.347	3998.32
525.556	4366.95
525.764	3441.27
525.973	3568.24
526.182	4375.14
526.391	4272.75
526.6	3400.31
526.809	3654.26
527.018	4409.96
527.227	4579.94
527.436	3285.62
527.646	3426.93
527.855	4471.4
528.065	4166.25
528.275	3302.01
528.484	3293.82
528.694	4674.15
528.904	4444.77
529.114	3203.71
529.325	3545.72
529.535	3895.92
529.745	4457.06
529.956	3232.38
530.166	3320.44
530.377	4452.97
530.588	4747.87
530.799	3590.77
531.01	3322.49
531.221	4573.8
531.432	4608.61
531.643	3285.62
531.855	3721.84
532.066	4645.48
532.278	4252.27
532.489	3459.7
532.701	3148.41
532.913	4686.44
533.125	4424.3
533.337	3078.78
533.549	3132.03
533.762	4354.66
533.974	3838.58
534.186	2960
534.399	3191.42
534.612	4551.27
534.825	4348.52
535.037	3320.44
535.25	3433.08
535.464	3842.67
535.677	4573.8
535.89	3031.68
536.104	3310.2
536.317	4135.53
536.531	4088.43
536.744	3379.83
536.958	2904.7
537.172	4127.34
537.386	3965.55
537.6	3060.35
537.815	3179.13
538.029	4205.16
538.244	4225.64
538.458	2681.47
538.673	3086.97
538.888	4059.76
539.103	4319.85
539.318	3009.15
539.533	2914.94
539.748	3885.68
539.963	3705.46
540.179	2765.44
540.394	2808.45
540.61	3338.87
540.826	3760.75
541.042	2839.17
541.258	2712.19
541.474	4438.63
541.69	3838.58
541.906	2837.12
542.123	2820.74
542.339	3904.11
542.556	3582.58
542.773	2767.49
542.99	2878.08
543.207	3773.04
543.424	3449.46
543.641	2900.61
543.858	3148.41
544.076	3449.46
544.293	3381.88
544.511	2802.3
544.729	2671.23
544.947	3459.7
545.165	3639.92
545.383	2568.84
545.601	2695.81
545.819	3701.36
546.038	3601.01
546.256	2904.7
546.475	2464.39
546.694	4395.62
546.913	3875.44
547.132	3162.75
547.351	2663.04
