Data from FLMT021711__14__18-15-14-187.txt Node

Date: Tue Nov 05 18:15:14 CET 2024
User: Etudiants TP
Spectrometer: FLMT02171
Trigger mode: 0
Integration Time (sec): 1.000000E-1
Scans to average: 5
Electric dark correction enabled: true
Nonlinearity correction enabled: false
Boxcar width: 15
XAxis mode: Wavelengths
Number of Pixels in Spectrum: 3648
>>>>>Begin Spectral Data<<<<<
194.658	-65.65
194.923	-63.62
195.188	-55.29
195.453	-55.41
195.717	-48.71
195.982	-45.48
196.247	-44.12
196.512	-46.85
196.777	-44.47
197.042	-41.78
197.307	-42.33
197.572	-36.51
197.837	-37.9
198.101	-35.09
198.366	-32.58
198.631	-30.73
198.896	-23.29
199.161	-16.13
199.425	-8.64
199.69	2.07
199.955	-0.07
200.22	-3.6
200.484	-3.05
200.749	-4.98
201.014	-2.51
201.278	-1.59
201.543	-0.63
201.807	-1.18
202.072	-0.15
202.337	-0.59
202.601	-0.73
202.866	-2.03
203.13	-0.63
203.395	-3.64
203.659	-2.73
203.924	-5.08
204.189	-4.9
204.453	-3.44
204.717	-0.55
204.982	0.99
205.246	2.39
205.511	4.49
205.775	2.87
206.04	9.7
206.304	9.69
206.568	11.39
206.833	11.9
207.097	13.17
207.361	15.9
207.626	20.09
207.89	19.57
208.154	21.81
208.419	23.4
208.683	24.29
208.947	27.31
209.211	25.59
209.476	25.17
209.74	26.37
210.004	27.36
210.268	27.96
210.532	30.82
210.796	31.77
211.061	32.39
211.325	33.17
211.589	32.86
211.853	33.7
212.117	33.81
212.381	33.19
212.645	33.57
212.909	33.94
213.173	30
213.437	29.99
213.701	30.35
213.965	29.72
214.229	24.82
214.493	24.82
214.757	23.99
215.021	23.85
215.285	27.07
215.549	27.87
215.813	24.5
216.077	24.77
216.34	25.86
216.604	25.18
216.868	26.18
217.132	27.68
217.396	27.51
217.659	28.16
217.923	24.37
218.187	23.28
218.451	22.5
218.714	18.75
218.978	18.99
219.242	21.84
219.505	22.96
219.769	23.71
220.033	23.1
220.296	25.23
220.56	25.89
220.824	23.2
221.087	23.73
221.351	24.21
221.614	23.9
221.878	25.7
222.142	25.28
222.405	25.1
222.669	27.82
222.932	23.3
223.196	21.21
223.459	16.88
223.722	19.3
223.986	18.86
224.249	18.06
224.513	18.27
224.776	17.92
225.04	16.57
225.303	15.12
225.566	14.25
225.83	15.93
226.093	19.69
226.356	18.42
226.62	17.08
226.883	19.72
227.146	20.11
227.409	17.27
227.673	14.92
227.936	14.23
228.199	15.51
228.462	12.35
228.725	10.65
228.989	10.14
229.252	10.72
229.515	16.55
229.778	13.95
230.041	13.57
230.304	10.74
230.567	11.72
230.83	8.42
231.093	10.08
231.356	10.76
231.619	17.8
231.882	15.15
232.145	17.82
232.408	15.55
232.671	15.15
232.934	15.91
233.197	13.35
233.46	12.68
233.723	15.42
233.986	13.58
234.249	10.77
234.512	12.36
234.775	16.59
235.037	15.82
235.3	15.81
235.563	17.86
235.826	17.93
236.089	20.45
236.351	18.75
236.614	21.29
236.877	23.23
237.14	27.4
237.402	26.29
237.665	20.08
237.928	20.46
238.19	17.03
238.453	19.74
238.716	19.92
238.978	19.82
239.241	19.76
239.503	22.36
239.766	16.24
240.029	14.21
240.291	17.11
240.554	17.79
240.816	15.9
241.079	16.9
241.341	18.04
241.604	17.07
241.866	13.58
242.129	14.12
242.391	15.88
242.653	15.44
242.916	14.67
243.178	15.05
243.441	15.31
243.703	13.75
243.965	11.62
244.228	9.99
244.49	9.83
244.752	11.8
245.015	12.75
245.277	13.99
245.539	13.31
245.801	13.75
246.064	13
246.326	12.44
246.588	12.7
246.85	13.98
247.112	14.74
247.374	17.24
247.637	18.37
247.899	18.64
248.161	19.5
248.423	14.08
248.685	14.93
248.947	15.59
249.209	13.64
249.471	14.27
249.733	15.46
249.995	13.66
250.257	13.21
250.519	11
250.781	13.33
251.043	10.57
251.305	12.43
251.567	14.43
251.829	14.65
252.091	16.54
252.353	14.07
252.615	15.34
252.876	12.17
253.138	11.29
253.4	6.57
253.662	7.55
253.924	10.71
254.185	12.28
254.447	13
254.709	13.27
254.971	14.43
255.232	17.57
255.494	15.81
255.756	13.83
256.017	14.67
256.279	14.17
256.541	13.78
256.802	13.69
257.064	14.96
257.326	16.31
257.587	17.23
257.849	17.13
258.11	22
258.372	22.74
258.633	23.95
258.895	24.13
259.156	22.38
259.418	18.58
259.679	13.46
259.941	10.9
260.202	12.37
260.464	14.58
260.725	13.92
260.987	13.61
261.248	11.06
261.509	11.6
261.771	9.6
262.032	11.22
262.293	11.08
262.555	10.4
262.816	7.86
263.077	4.42
263.338	-0.19
263.6	-0.46
263.861	-1.48
264.122	-2.29
264.383	1.24
264.645	2.88
264.906	1.25
265.167	1.39
265.428	-1.16
265.689	0.48
265.95	-1.43
266.211	-1.41
266.473	-2.02
266.734	-4.53
266.995	-8.92
267.256	-6.66
267.517	-4.04
267.778	-0.13
268.039	1.86
268.3	-0
268.561	-1.93
268.822	1.72
269.083	-0.22
269.344	-0.84
269.604	-0.12
269.865	1.61
270.126	-2.57
270.387	-1.66
270.648	1.06
270.909	1.47
271.17	2.48
271.43	-0.38
271.691	-2.43
271.952	-3.61
272.213	-1.63
272.473	-4.63
272.734	-2.75
272.995	-0.49
273.256	-0.14
273.516	3.64
273.777	0.15
274.038	2.69
274.298	-1.34
274.559	-1
274.82	3.55
275.08	5.96
275.341	7.34
275.601	6.8
275.862	4.23
276.122	5.51
276.383	6.29
276.643	8.73
276.904	6.34
277.164	10.09
277.425	10.69
277.685	14.46
277.946	14.91
278.206	16.31
278.467	17.86
278.727	16.31
278.987	16.65
279.248	15.11
279.508	18.48
279.768	21.75
280.029	23.99
280.289	20.94
280.549	19.4
280.81	18.98
281.07	17.78
281.33	19.57
281.59	17.62
281.851	21.96
282.111	22.01
282.371	24.11
282.631	24.63
282.891	23.97
283.151	24.32
283.412	22.78
283.672	22.36
283.932	23.76
284.192	23.76
284.452	21.8
284.712	19.63
284.972	18.42
285.232	15.03
285.492	17.35
285.752	13.05
286.012	18.73
286.272	20.35
286.532	17.51
286.792	19.18
287.052	20.63
287.312	21.39
287.571	19.5
287.831	18.97
288.091	15.54
288.351	15.8
288.611	20.88
288.871	19.43
289.13	19.84
289.39	15.42
289.65	16.21
289.91	11.48
290.17	11.62
290.429	13.03
290.689	10.12
290.949	6.16
291.208	6.29
291.468	8.83
291.728	9.07
291.987	9.93
292.247	8.9
292.506	11.64
292.766	12.98
293.026	11.67
293.285	14.53
293.545	18.44
293.804	19.95
294.064	15.81
294.323	13.91
294.583	15.69
294.842	15.59
295.102	16.24
295.361	16.17
295.621	18.05
295.88	19.17
296.139	18.91
296.399	20.49
296.658	15.19
296.917	15.46
297.177	12.38
297.436	14.66
297.695	13.36
297.955	17.09
298.214	17.65
298.473	18.45
298.732	21.83
298.992	24.94
299.251	25.37
299.51	22.39
299.769	23.69
300.028	23.83
300.287	24.59
300.547	24.63
300.806	23.25
301.065	26.79
301.324	27.39
301.583	21.52
301.842	18.06
302.101	16.58
302.36	16.07
302.619	15.13
302.878	14.99
303.137	12.96
303.396	14.06
303.655	14.58
303.914	11.64
304.173	12.57
304.432	11.4
304.691	14.66
304.95	12.43
305.208	16.45
305.467	16.36
305.726	15.3
305.985	14.77
306.244	14.41
306.503	14.62
306.761	12.81
307.02	9.9
307.279	9.93
307.537	10.43
307.796	7.17
308.055	5.7
308.314	6.94
308.572	4.66
308.831	6.24
309.09	6.53
309.348	6.55
309.607	7.19
309.865	10.28
310.124	10.52
310.382	12.19
310.641	12.36
310.9	10.96
311.158	10.98
311.417	10.85
311.675	12.52
311.933	13.43
312.192	15.89
312.45	16.04
312.709	15.93
312.967	15.79
313.226	16.29
313.484	14.7
313.742	13.92
314.001	11.82
314.259	10.85
314.517	10.48
314.776	13.24
315.034	16.38
315.292	13.97
315.55	12.96
315.809	11.56
316.067	10.96
316.325	9.33
316.583	11.65
316.841	9.79
317.1	7.93
317.358	4.46
317.616	3.72
317.874	3.47
318.132	1.38
318.39	1.49
318.648	0.36
318.906	0.44
319.164	0.37
319.422	-0.66
319.68	-3.65
319.938	-3.29
320.196	-4.45
320.454	-3.48
320.712	-4.15
320.97	-3.84
321.228	-6.18
321.486	-2.55
321.744	-0.97
322.002	1.94
322.26	1.43
322.517	1.24
322.775	-2.73
323.033	-5.3
323.291	-1.63
323.549	-0.47
323.806	3.37
324.064	4.41
324.322	5.99
324.58	3.25
324.837	5.88
325.095	3.6
325.353	5.52
325.61	7.01
325.868	5.72
326.126	8.01
326.383	6.41
326.641	4.65
326.898	6.78
327.156	6.42
327.413	6.93
327.671	8.15
327.928	9.74
328.186	11.42
328.443	10.29
328.701	13.19
328.958	15.08
329.216	15.51
329.473	13.63
329.731	14.15
329.988	14.27
330.245	15.55
330.503	16.03
330.76	17.15
331.017	19.74
331.275	16.01
331.532	15.81
331.789	13.29
332.047	12.35
332.304	8.1
332.561	8.79
332.818	7.21
333.076	9.78
333.333	11.76
333.59	10.83
333.847	13.19
334.104	13.48
334.361	12.58
334.618	13.39
334.876	11.04
335.133	11.51
335.39	10.8
335.647	11.02
335.904	8.29
336.161	5.19
336.418	5.84
336.675	2.61
336.932	4.01
337.189	4.44
337.446	5.08
337.703	4.16
337.96	0.78
338.216	0.98
338.473	-0.11
338.73	0.63
338.987	0.04
339.244	3.85
339.501	1.69
339.757	2.11
340.014	3.08
340.271	4.83
340.528	6.07
340.785	11.34
341.041	11.99
341.298	9.42
341.555	10.81
341.811	9.33
342.068	5.63
342.325	6.3
342.581	8.94
342.838	10.17
343.094	9.94
343.351	9.91
343.608	7.86
343.864	10.8
344.121	11.45
344.377	10.31
344.634	8.89
344.89	6.82
345.147	6.27
345.403	4.84
345.66	5.3
345.916	7.55
346.172	6.8
346.429	5.19
346.685	4.27
346.942	4.74
347.198	-0.21
347.454	0.36
347.711	1.56
347.967	-1.52
348.223	-0.11
348.48	0.31
348.736	2.22
348.992	1.56
349.248	2.54
349.504	2.04
349.761	2.9
350.017	4.54
350.273	4.88
350.529	3.25
350.785	2.73
351.041	1.93
351.297	2.95
351.554	2.37
351.81	-0.23
352.066	-0.76
352.322	-2.1
352.578	-0.72
352.834	-0.77
353.09	-1.19
353.346	-1.95
353.602	-4.13
353.858	-5.93
354.114	-7.33
354.369	-6.63
354.625	-5.39
354.881	-7.11
355.137	-2.91
355.393	-2.72
355.649	-2.58
355.905	-1.05
356.16	-1.86
356.416	-2.28
356.672	-9.51
356.928	-9.35
357.183	-9.07
357.439	-8.97
357.695	-10.65
357.951	-6.05
358.206	-5.62
358.462	-4.58
358.718	-7.21
358.973	-5.39
359.229	-5.21
359.484	-4.3
359.74	-1.25
359.996	-0.96
360.251	5.03
360.507	4.84
360.762	4.79
361.018	7.9
361.273	7.68
361.529	11.22
361.784	12.05
362.04	14.75
362.295	15.55
362.55	15.55
362.806	18.7
363.061	18.27
363.316	20.43
363.572	21.31
363.827	22.88
364.082	19.14
364.338	19.16
364.593	18.97
364.848	19.76
365.104	18.78
365.359	21.78
365.614	21.21
365.869	18.55
366.124	17.59
366.38	15.37
366.635	18.68
366.89	19.09
367.145	17.86
367.4	21.64
367.655	19.8
367.91	20.61
368.165	17.27
368.42	14.82
368.675	15.19
368.93	14.66
369.185	12.33
369.44	11.46
369.695	12.32
369.95	10.69
370.205	10.12
370.46	9.02
370.715	7.36
370.97	7.54
371.225	6.48
371.48	6.95
371.734	7.77
371.989	10.62
372.244	10.56
372.499	13.5
372.754	12.95
373.008	10.89
373.263	5.05
373.518	9.36
373.773	6.82
374.027	6.55
374.282	8.5
374.537	9.21
374.791	9.94
375.046	9.67
375.301	8.07
375.555	7.35
375.81	8.13
376.064	9.48
376.319	11.34
376.573	10.01
376.828	6.58
377.082	11.77
377.337	9.51
377.591	6.98
377.846	7.6
378.1	8.75
378.355	9.4
378.609	8.82
378.863	6.42
379.118	8.01
379.372	5.96
379.627	4.15
379.881	1.66
380.135	1.42
380.389	0.5
380.644	-0.39
380.898	0.55
381.152	1.65
381.407	-0.08
381.661	3.2
381.915	4.68
382.169	5.37
382.423	3.06
382.677	-0.26
382.932	1.95
383.186	1.99
383.44	2.1
383.694	5.61
383.948	3.31
384.202	4.55
384.456	7.59
384.71	9.25
384.964	7.71
385.218	9.3
385.472	10.59
385.726	9.59
385.98	9.28
386.234	8.5
386.488	5.65
386.742	7.26
386.996	3.71
387.249	5.28
387.503	7.59
387.757	9.13
388.011	9.78
388.265	8.93
388.518	10.64
388.772	12.4
389.026	14.3
389.28	11.92
389.533	10.56
389.787	13.3
390.041	10.9
390.295	13.05
390.548	12.17
390.802	14.14
391.055	13.92
391.309	12.81
391.563	8.98
391.816	9.67
392.07	7.84
392.323	8.16
392.577	8.4
392.83	8.91
393.084	14.48
393.337	17.31
393.591	19.06
393.844	19.03
394.098	23.09
394.351	28.33
394.604	29.92
394.858	32.6
395.111	33.25
395.364	29.67
395.618	31.64
395.871	30.03
396.124	29.18
396.378	27.48
396.631	27.65
396.884	24.57
397.137	23.81
397.391	24.65
397.644	20.87
397.897	22.36
398.15	21.73
398.403	26.72
398.657	24.02
398.91	22.65
399.163	25.63
399.416	24.42
399.669	23.14
399.922	22.51
400.175	24.37
400.428	32.01
400.681	43.9
400.934	51.62
401.187	65.66
401.44	77.58
401.693	84.77
401.946	88.05
402.199	85.6
402.452	86.64
402.704	85.48
402.957	84.13
403.21	86.89
403.463	87.29
403.716	88.96
403.969	92.43
404.221	93.89
404.474	97.1
404.727	102.2
404.98	107.02
405.232	107.72
405.485	110.5
405.738	111.1
405.99	111.07
406.243	110.14
406.496	111.96
406.748	112.13
407.001	109.93
407.253	112.15
407.506	112.21
407.759	113.16
408.011	107.12
408.264	100.18
408.516	88.37
408.769	74.41
409.021	59.43
409.274	47.09
409.526	41.46
409.778	34.9
410.031	36.65
410.283	33.85
410.536	36.6
410.788	35.09
411.04	33.9
411.293	33.8
411.545	34.29
411.797	31.53
412.049	30.26
412.302	29.7
412.554	29.23
412.806	24.55
413.058	22.28
413.311	21.48
413.563	20.29
413.815	21.15
414.067	19.52
414.319	19.68
414.571	20.6
414.823	18.73
415.075	17.23
415.328	19.22
415.58	21.19
415.832	23.23
416.084	23.65
416.336	21.91
416.588	26.56
416.84	26
417.091	29.28
417.343	25.31
417.595	27.67
417.847	27.3
418.099	28.55
418.351	28.71
418.603	31.63
418.855	32.44
419.106	33.5
419.358	33.23
419.61	33.37
419.862	34.38
420.114	30.3
420.365	29.97
420.617	31.65
420.869	29.49
421.12	27.74
421.372	30.27
421.624	29.22
421.875	30.24
422.127	27
422.379	26.99
422.63	30.18
422.882	28.58
423.133	27.57
423.385	28.35
423.636	28.85
423.888	30.56
424.139	32.17
424.391	26.17
424.642	24
424.894	20.45
425.145	21.28
425.396	17.84
425.648	20.81
425.899	17.46
426.151	17.67
426.402	16.38
426.653	16.13
426.905	15.01
427.156	11.71
427.407	12.69
427.658	11.22
427.91	10.86
428.161	10.34
428.412	12.28
428.663	14.39
428.914	17.02
429.166	16.37
429.417	17.88
429.668	17.02
429.919	15.22
430.17	14.23
430.421	14.76
430.672	19.47
430.923	21.92
431.174	25.49
431.425	45.82
431.676	76.89
431.927	116.86
432.178	169.9
432.429	222.03
432.68	268.33
432.931	306.76
433.182	335.35
433.433	348.89
433.683	365.28
433.934	370.46
434.185	372.16
434.436	372.55
434.687	374.27
434.937	379.52
435.188	377.61
435.439	377.58
435.69	378.96
435.94	377.34
436.191	377.08
436.442	376.3
436.692	374.08
436.943	372.08
437.194	369.28
437.444	371.21
437.695	375.45
437.945	376.37
438.196	373.94
438.447	372.05
438.697	369.96
438.948	363.72
439.198	340.91
439.449	304.49
439.699	263.89
439.949	214.49
440.2	161.47
440.45	116.56
440.701	79.6
440.951	52.66
441.201	36.39
441.452	20.55
441.702	13.38
441.952	11.42
442.203	10.91
442.453	7.63
442.703	6.34
442.953	7.45
443.204	7.2
443.454	5.19
443.704	5.47
443.954	2.53
444.204	4.28
444.455	5.56
444.705	7.13
444.955	7.08
445.205	5.56
445.455	2.24
445.705	2.09
445.955	2.27
446.205	2.47
446.455	3.86
446.705	5.58
446.955	6.51
447.205	8.29
447.455	7.98
447.705	5.17
447.955	5.28
448.205	4.54
448.454	3.22
448.704	4.13
448.954	1.64
449.204	2.8
449.454	2.15
449.704	0.44
449.953	0.37
450.203	2.44
450.453	-0.82
450.703	2.04
450.952	1.6
451.202	3.32
451.452	2.96
451.701	5.86
451.951	9
452.201	6.72
452.45	5.36
452.7	7.26
452.949	6.89
453.199	6.29
453.448	7.88
453.698	9.33
453.947	7.63
454.197	6.7
454.446	3.53
454.696	5.72
454.945	7.19
455.195	6.68
455.444	8.35
455.693	11.95
455.943	10.31
456.192	11.93
456.442	12.68
456.691	13.06
456.94	11.54
457.189	11.5
457.439	14.51
457.688	15.82
457.937	14.6
458.186	16.07
458.436	14.95
458.685	15.17
458.934	14.43
459.183	14.47
459.432	17.71
459.681	16.23
459.93	15.93
460.179	15.93
460.429	13.37
460.678	16.6
460.927	19.92
461.176	18.03
461.425	17.22
461.674	19.48
461.923	18.34
462.172	19.46
462.42	18.03
462.669	19.65
462.918	19.87
463.167	19.21
463.416	16.62
463.665	19.31
463.914	19.27
464.162	16.84
464.411	17.65
464.66	20.93
464.909	19.34
465.158	19.21
465.406	18.85
465.655	20.8
465.904	22.06
466.152	22.3
466.401	24.75
466.65	26.35
466.898	24.4
467.147	18.98
467.395	18.42
467.644	21.71
467.893	20.62
468.141	21.05
468.39	17.71
468.638	15.17
468.887	13.88
469.135	14.24
469.384	13.95
469.632	15.46
469.88	15
470.129	16.89
470.377	13.41
470.626	16.05
470.874	18.31
471.122	20.02
471.371	17.68
471.619	15.61
471.867	18.17
472.115	17.87
472.364	14.9
472.612	18.54
472.86	16.08
473.108	16.03
473.356	16.85
473.605	16.45
473.853	13.93
474.101	11.46
474.349	11.07
474.597	15
474.845	15.19
475.093	14.31
475.341	10.97
475.589	12.68
475.837	15.29
476.085	18.28
476.333	17.61
476.581	19.92
476.829	19.26
477.077	22.1
477.325	21.91
477.573	24.77
477.821	23.08
478.069	24.48
478.317	24.81
478.564	27.93
478.812	27.44
479.06	28.22
479.308	29.75
479.555	31.97
479.803	34.53
480.051	40.08
480.299	42.77
480.546	47.69
480.794	48.68
481.042	53.37
481.289	58.26
481.537	64
481.784	70.68
482.032	79.11
482.28	84.22
482.527	90.69
482.775	99.1
483.022	108.98
483.27	118.9
483.517	129.34
483.765	136.51
484.012	145.34
484.259	150.69
484.507	160.63
484.754	169.17
485.002	175.58
485.249	180.44
485.496	190.26
485.744	195.64
485.991	199.92
486.238	202.65
486.486	211.36
486.733	217
486.98	224.91
487.227	225.84
487.474	230.1
487.722	234.88
487.969	234.95
488.216	235.56
488.463	237.11
488.71	235.22
488.957	233.21
489.204	231.88
489.451	230.51
489.699	226.49
489.946	222.01
490.193	218.1
490.44	213.21
490.687	209.11
490.934	201.04
491.18	192.09
491.427	187.78
491.674	186.18
491.921	181.27
492.168	175.02
492.415	165.35
492.662	161.42
492.909	158.69
493.155	152.76
493.402	147.15
493.649	140.04
493.896	136.74
494.142	128.06
494.389	123.92
494.636	117.31
494.883	111.72
495.129	105.34
495.376	98.36
495.623	95.47
495.869	94.04
496.116	92.11
496.362	90.73
496.609	90.22
496.855	92.03
497.102	88.36
497.348	85.41
497.595	82.08
497.841	83.52
498.088	78.52
498.334	75.69
498.581	71.34
498.827	68.92
499.074	66.65
499.32	64.27
499.566	66.23
499.813	64.83
500.059	60.23
500.305	58.09
500.552	55.02
500.798	52.81
501.044	53.2
501.29	52.38
501.537	47.02
501.783	47.27
502.029	48.18
502.275	44.35
502.521	42.76
502.767	42.47
503.013	44.14
503.26	40.06
503.506	35.68
503.752	35.12
503.998	30.1
504.244	28.65
504.49	23.3
504.736	23.62
504.982	21.19
505.228	24
505.474	23.12
505.72	23.91
505.966	21.36
506.211	24.11
506.457	23.3
506.703	19.03
506.949	15.69
507.195	12.2
507.441	7.76
507.686	11.21
507.932	9.71
508.178	10.81
508.424	8.06
508.669	6.4
508.915	5.39
509.161	8.85
509.406	9.4
509.652	9.25
509.898	11.77
510.143	12.94
510.389	11.48
510.634	7.29
510.88	12.16
511.125	14.05
511.371	14.06
511.616	16.58
511.862	14.69
512.107	13.18
512.353	13.24
512.598	13.17
512.844	10.17
513.089	7.02
513.335	8.29
513.58	8.02
513.825	8.06
514.071	6.83
514.316	7.85
514.561	8.56
514.806	7.62
515.052	10.04
515.297	8.13
515.542	10.34
515.787	10.5
516.033	11.91
516.278	12.76
516.523	12.76
516.768	10.64
517.013	6.96
517.258	4.59
517.503	4.87
517.748	5.25
517.993	5.52
518.238	4.58
518.483	2.04
518.728	0.99
518.973	-0.2
519.218	-2.37
519.463	-1.36
519.708	-1.63
519.953	-3.39
520.198	-3.07
520.443	-0.24
520.688	2.79
520.933	2.07
521.177	2.16
521.422	-0.06
521.667	3.58
521.912	3.47
522.157	-0.36
522.401	3.36
522.646	4.46
522.891	4.69
523.135	4.53
523.38	4.62
523.625	4.08
523.869	5.86
524.114	6.7
524.358	4.83
524.603	6.41
524.848	4.37
525.092	3.16
525.337	3.65
525.581	6.06
525.826	8.66
526.07	8.99
526.315	10.39
526.559	10.39
526.803	8.67
527.048	11.43
527.292	13.33
527.537	14.76
527.781	14.17
528.025	11.28
528.269	12.43
528.514	13.11
528.758	13.36
529.002	14.17
529.247	16.54
529.491	15.76
529.735	22.14
529.979	21.04
530.223	21.12
530.467	19.43
530.712	17.79
530.956	16.65
531.2	17.63
531.444	16.1
531.688	18.64
531.932	19.98
532.176	21.01
532.42	23.9
532.664	25.44
532.908	24.58
533.152	23.22
533.396	24.22
533.64	23.93
533.884	22.68
534.128	23.9
534.371	27.75
534.615	30.41
534.859	29.83
535.103	31.01
535.347	33.97
535.59	38.16
535.834	37.56
536.078	42.33
536.322	47.65
536.565	55.23
536.809	59.16
537.053	67.26
537.296	73.54
537.54	82.56
537.784	92.75
538.027	108.14
538.271	122.41
538.514	136.96
538.758	151.48
539.001	164.18
539.245	177.48
539.488	191.33
539.732	206.99
539.975	218.52
540.219	232.99
540.462	245.55
540.706	259
540.949	269.9
541.192	280.66
541.436	297.99
541.679	316.07
541.922	334.37
542.166	348.98
542.409	371.24
542.652	394.88
542.895	417.89
543.139	438.29
543.382	459.35
543.625	472.31
543.868	484.07
544.111	493.46
544.354	498.34
544.598	502.21
544.841	504.29
545.084	503.79
545.327	499.64
545.57	493.49
545.813	486.57
546.056	477.59
546.299	469.24
546.542	461.82
546.785	455.23
547.028	446.55
547.271	434.78
547.514	426.35
547.756	415.04
547.999	406.67
548.242	398.17
548.485	386.69
548.728	379.6
548.971	363.97
549.213	351.79
549.456	334.2
549.699	315.11
549.942	294.28
550.184	269.55
550.427	247.11
550.67	225.54
550.912	201.9
551.155	186.51
551.398	170.89
551.64	155.47
551.883	144.43
552.125	132.72
552.368	122.67
552.61	110.59
552.853	105.3
553.095	97.71
553.338	91.69
553.58	85.51
553.823	79.37
554.065	77.53
554.308	68.92
554.55	62.71
554.792	56.63
555.035	51.69
555.277	46.7
555.519	44.2
555.762	39.4
556.004	37.8
556.246	31.63
556.488	31.26
556.731	25.19
556.973	25.37
557.215	23.39
557.457	22.22
557.699	23.94
557.941	19.52
558.183	17.82
558.426	20.28
