Data from FLMT021711__4__18-14-16-188.txt Node

Date: Tue Nov 05 18:14:16 CET 2024
User: Etudiants TP
Spectrometer: FLMT02171
Trigger mode: 0
Integration Time (sec): 1,000000E-1
Scans to average: 5
Electric dark correction enabled: true
Nonlinearity correction enabled: false
Boxcar width: 15
XAxis mode: Wavelengths
Number of Pixels in Spectrum: 3648
>>>>>Begin Spectral Data<<<<<
194,658	-69,75
194,923	-66,23
195,188	-59,12
195,453	-58,61
195,717	-52,8
195,982	-48,4
196,247	-46,3
196,512	-47,75
196,777	-46,25
197,042	-45,2
197,307	-45,85
197,572	-40,23
197,837	-40,59
198,101	-38,75
198,366	-36,43
198,631	-34,62
198,896	-27,73
199,161	-19,17
199,425	-10,84
199,69	0,43
199,955	-0,53
200,22	-2,7
200,484	-3,45
200,749	-2,98
201,014	-1,45
201,278	-2,77
201,543	-0,97
201,807	-1,38
202,072	1,03
202,337	-0,01
202,601	0,33
202,866	-1,87
203,13	-0,61
203,395	-3,65
203,659	-2,86
203,924	-4,06
204,189	-4,79
204,453	-2,84
204,717	-0,55
204,982	-0
205,246	1,28
205,511	4,68
205,775	2,53
206,04	7,42
206,304	8,89
206,568	11,46
206,833	11,04
207,097	12,64
207,361	13,35
207,626	17,03
207,89	17,44
208,154	18,19
208,419	20,3
208,683	19,99
208,947	21,45
209,211	21,33
209,476	21,06
209,74	21,84
210,004	21,8
210,268	22,91
210,532	25,51
210,796	25,73
211,061	27,05
211,325	27,74
211,589	27,05
211,853	27,81
212,117	27,08
212,381	27,47
212,645	27,19
212,909	27,47
213,173	27,02
213,437	27,63
213,701	26,42
213,965	26,58
214,229	22,36
214,493	22,07
214,757	21,51
215,021	21,2
215,285	24,7
215,549	27,03
215,813	23,66
216,077	22,89
216,34	25,1
216,604	24,39
216,868	26,35
217,132	27,74
217,396	27,34
217,659	28,08
217,923	24,26
218,187	25
218,451	22,65
218,714	20,84
218,978	21,69
219,242	24,03
219,505	23,9
219,769	25,77
220,033	25,47
220,296	27,64
220,56	27,64
220,824	24,22
221,087	24,25
221,351	22,53
221,614	23,4
221,878	26,51
222,142	25,84
222,405	26,25
222,669	28,09
222,932	23,25
223,196	21,49
223,459	17,58
223,722	18,54
223,986	18,73
224,249	17,1
224,513	17,07
224,776	16,75
225,04	15,65
225,303	15,1
225,566	14,82
225,83	17,2
226,093	21,14
226,356	20,03
226,62	19,9
226,883	21,8
227,146	20,88
227,409	20,34
227,673	17,73
227,936	17,31
228,199	18,75
228,462	15,99
228,725	15,23
228,989	16,02
229,252	16,9
229,515	22,35
229,778	20,26
230,041	17,92
230,304	16,58
230,567	17,61
230,83	14,95
231,093	17,1
231,356	17,75
231,619	25,53
231,882	24,55
232,145	25,88
232,408	25,82
232,671	24,96
232,934	25,89
233,197	24,62
233,46	22,19
233,723	24,6
233,986	21,77
234,249	18,02
234,512	19,72
234,775	22,99
235,037	21,54
235,3	20,14
235,563	19,73
235,826	22,41
236,089	24,36
236,351	23,6
236,614	27,67
236,877	28,07
237,14	30,84
237,402	29,82
237,665	24,28
237,928	23,05
238,19	20,58
238,453	23,05
238,716	21,41
238,978	22,59
239,241	21,07
239,503	24,38
239,766	18,14
240,029	15,96
240,291	19,8
240,554	19,79
240,816	19,66
241,079	19,17
241,341	18,59
241,604	18,31
241,866	14,08
242,129	15,6
242,391	18,53
242,653	16,8
242,916	15,35
243,178	15,85
243,441	18,6
243,703	18,44
243,965	15,41
244,228	14,93
244,49	13,49
244,752	12,28
245,015	13,46
245,277	15,75
245,539	14,92
245,801	16,68
246,064	17,85
246,326	18,68
246,588	18,24
246,85	20,2
247,112	20,45
247,374	23,05
247,637	25,13
247,899	25,04
248,161	24,99
248,423	19,44
248,685	20,38
248,947	20,77
249,209	20,95
249,471	22,52
249,733	24,28
249,995	23,73
250,257	23,34
250,519	21,5
250,781	24,68
251,043	23,34
251,305	24,16
251,567	25,17
251,829	24,77
252,091	23,34
252,353	20,13
252,615	20,59
252,876	18,73
253,138	17,27
253,4	11,82
253,662	13,25
253,924	15,83
254,185	16,68
254,447	16,03
254,709	16,97
254,971	18,59
255,232	19,32
255,494	18,02
255,756	15,36
256,017	15,21
256,279	15,13
256,541	15,1
256,802	14,02
257,064	14,28
257,326	13,27
257,587	13,66
257,849	14,29
258,11	17,66
258,372	18,65
258,633	20,67
258,895	18,83
259,156	17,56
259,418	16,08
259,679	12,08
259,941	9,93
260,202	13,27
260,464	16,18
260,725	15,93
260,987	15,68
261,248	13,83
261,509	15,84
261,771	13,95
262,032	14,56
262,293	14,14
262,555	14,32
262,816	10,48
263,077	9,4
263,338	7,61
263,6	8,03
263,861	7,59
264,122	6,88
264,383	9,54
264,645	10,73
264,906	9,67
265,167	9,31
265,428	9,74
265,689	10,62
265,95	7,64
266,211	8,75
266,473	7,75
266,734	4,19
266,995	0,58
267,256	2,34
267,517	5,07
267,778	8,12
268,039	9,42
268,3	8,58
268,561	5,18
268,822	7,94
269,083	6,18
269,344	5,92
269,604	4,65
269,865	6,54
270,126	2,65
270,387	3,76
270,648	5,5
270,909	5,92
271,17	3,58
271,43	-0,24
271,691	-3,47
271,952	-4,6
272,213	-1,17
272,473	-2,92
272,734	-1,37
272,995	0,24
273,256	1,66
273,516	3,08
273,777	0,17
274,038	1,84
274,298	-2,39
274,559	-2,06
274,82	3,56
275,08	7,04
275,341	7,94
275,601	5,74
275,862	3,62
276,122	4,3
276,383	5,24
276,643	7,42
276,904	7
277,164	9,89
277,425	10,71
277,685	14,08
277,946	13,61
278,206	15,41
278,467	16,64
278,727	15,92
278,987	15,21
279,248	15,25
279,508	17,71
279,768	21,44
280,029	23,06
280,289	18,47
280,549	16,39
280,81	15,86
281,07	15,29
281,33	14,72
281,59	13,66
281,851	16,6
282,111	17,07
282,371	17,75
282,631	19,37
282,891	16,99
283,151	14,89
283,412	12,56
283,672	11,65
283,932	11,63
284,192	12,38
284,452	10,76
284,712	9,24
284,972	7,04
285,232	5,17
285,492	7,29
285,752	5,03
286,012	11,43
286,272	13,16
286,532	11,6
286,792	12,38
287,052	14,77
287,312	16,04
287,571	15,2
287,831	16,12
288,091	12,48
288,351	13,33
288,611	17,15
288,871	16,97
289,13	16,64
289,39	13,95
289,65	15,15
289,91	12,3
290,17	14,39
290,429	16,61
290,689	13,79
290,949	11,33
291,208	12,99
291,468	15,23
291,728	17,58
291,987	20,52
292,247	18,54
292,506	21,53
292,766	23,84
293,026	21,95
293,285	23,69
293,545	25,29
293,804	26,16
294,064	22,18
294,323	18,89
294,583	19,17
294,842	19,21
295,102	20,55
295,361	21,16
295,621	21,98
295,88	21,45
296,139	21,95
296,399	22,93
296,658	18,67
296,917	17,73
297,177	15,73
297,436	17,54
297,695	15,69
297,955	17,56
298,214	14,78
298,473	16,59
298,732	18,28
298,992	20,93
299,251	20,08
299,51	15,87
299,769	16,82
300,028	15,43
300,287	16,19
300,547	15,31
300,806	13,16
301,065	17,41
301,324	18,76
301,583	14,92
301,842	11,1
302,101	9,18
302,36	9,88
302,619	8,01
302,878	8,15
303,137	4,18
303,396	5,42
303,655	6,75
303,914	4,2
304,173	4,62
304,432	5,08
304,691	8,11
304,95	6,29
305,208	12,24
305,467	12,9
305,726	12,29
305,985	14,06
306,244	16,37
306,503	14,93
306,761	13,02
307,02	10,14
307,279	12,1
307,537	14,43
307,796	10,16
308,055	7,48
308,314	10
308,572	8,55
308,831	10,78
309,09	11,29
309,348	11,34
309,607	10,44
309,865	13,6
310,124	12,91
310,382	14,47
310,641	17,05
310,9	14,8
311,158	17,36
311,417	16,51
311,675	16,41
311,933	16,75
312,192	19,04
312,45	17,05
312,709	17,88
312,967	17,4
313,226	15,42
313,484	13,63
313,742	12,91
314,001	10,36
314,259	8,38
314,517	8,79
314,776	12,48
315,034	14,47
315,292	11,26
315,55	8,45
315,809	9,32
316,067	10,28
316,325	7,72
316,583	8,24
316,841	6,02
317,1	3,32
317,358	0,76
317,616	0,96
317,874	0,4
318,132	0,09
318,39	-0,94
318,648	-3,6
318,906	-2,39
319,164	-3,89
319,422	-6,18
319,68	-6,99
319,938	-5,53
320,196	-7,61
320,454	-4,84
320,712	-6,44
320,97	-6,1
321,228	-8,68
321,486	-5,11
321,744	-3,86
322,002	-2,01
322,26	-3,38
322,517	-2,92
322,775	-7,2
323,033	-8,62
323,291	-6
323,549	-2,79
323,806	-1,31
324,064	0,12
324,322	2,22
324,58	1,22
324,837	4,01
325,095	1,5
325,353	2,08
325,61	4,48
325,868	3,26
326,126	5,74
326,383	5,51
326,641	5,44
326,898	5,82
327,156	6,83
327,413	8,34
327,671	8,78
327,928	10,36
328,186	12,36
328,443	11,14
328,701	14,51
328,958	16,33
329,216	17,76
329,473	14,34
329,731	16
329,988	16,47
330,245	19,63
330,503	20,39
330,76	21,59
331,017	24,27
331,275	21,49
331,532	20,71
331,789	18,04
332,047	16,88
332,304	12,42
332,561	12,4
332,818	10,07
333,076	13,95
333,333	16,12
333,59	15,96
333,847	17,65
334,104	16,7
334,361	15,9
334,618	15,39
334,876	14,3
335,133	14,6
335,39	13,6
335,647	13,91
335,904	10,67
336,161	9,15
336,418	8,61
336,675	4,36
336,932	6
337,189	5,62
337,446	6,68
337,703	4,75
337,96	1,21
338,216	2,18
338,473	-1,26
338,73	-1,47
338,987	-1,88
339,244	1,67
339,501	0,34
339,757	2,47
340,014	4,11
340,271	7,61
340,528	8,56
340,785	13,42
341,041	13,23
341,298	10
341,555	10,21
341,811	9,82
342,068	6,57
342,325	6,17
342,581	8,87
342,838	10,24
343,094	9,87
343,351	9,67
343,608	7,61
343,864	9,62
344,121	10,23
344,377	10,84
344,634	10,79
344,89	8,94
345,147	8,41
345,403	6,82
345,66	7,08
345,916	7,97
346,172	5,07
346,429	4,46
346,685	2,86
346,942	1,99
347,198	-1,23
347,454	-0,41
347,711	-1,43
347,967	-4,25
348,223	-5,56
348,48	-5,4
348,736	-2,87
348,992	-3,87
349,248	-0,42
349,504	-0,62
349,761	-0,84
350,017	0,32
350,273	1,19
350,529	0,28
350,785	-0,25
351,041	-0,88
351,297	0,37
351,554	-1,36
351,81	-3,73
352,066	-5,35
352,322	-6,31
352,578	-5,42
352,834	-5,73
353,09	-6,25
353,346	-5,22
353,602	-7,22
353,858	-6,83
354,114	-7,54
354,369	-5,17
354,625	-1,29
354,881	-3,52
355,137	-1,15
355,393	-0,71
355,649	2,01
355,905	1,82
356,16	2,19
356,416	1,57
356,672	-5,63
356,928	-5,4
357,183	-6,85
357,439	-7,37
357,695	-8,54
357,951	-3,95
358,206	-4,71
358,462	-5,34
358,718	-7,28
358,973	-5,92
359,229	-5,01
359,484	-2,5
359,74	1
359,996	2,04
360,251	6,51
360,507	6,38
360,762	6,88
361,018	11,45
361,273	10,68
361,529	13,62
361,784	14,78
362,04	17,79
362,295	18,15
362,55	19,19
362,806	23,91
363,061	25,5
363,316	26,44
363,572	25,42
363,827	27,67
364,082	25,48
364,338	25,9
364,593	27,47
364,848	29,42
365,104	27,94
365,359	30,53
365,614	31,11
365,869	28,21
366,124	29,45
366,38	28,25
366,635	31
366,89	31,92
367,145	31,58
367,4	34,72
367,655	32,89
367,91	32,69
368,165	29,97
368,42	27,15
368,675	27,94
368,93	26,59
369,185	23,34
369,44	22,07
369,695	23,15
369,95	20,78
370,205	18,84
370,46	15,51
370,715	13,54
370,97	13,11
371,225	13,68
371,48	14,49
371,734	14,84
371,989	16,2
372,244	16,22
372,499	16,58
372,754	14,56
373,008	13,03
373,263	9,13
373,518	11,55
373,773	8,95
374,027	7,74
374,282	10,65
374,537	10,36
374,791	11,13
375,046	9,54
375,301	8,23
375,555	7
375,81	8,41
376,064	8,37
376,319	11,14
376,573	9,45
376,828	6,14
377,082	11,89
377,337	10,54
377,591	7,81
377,846	8,58
378,1	11,45
378,355	13,28
378,609	11,6
378,863	7,32
379,118	8,32
379,372	7,44
379,627	5,93
379,881	5,35
380,135	4,59
380,389	5,06
380,644	6,94
380,898	7,6
381,152	9,35
381,407	8,36
381,661	10,97
381,915	13,14
382,169	13,02
382,423	12,79
382,677	9,83
382,932	9,87
383,186	10,5
383,44	12,72
383,694	14,77
383,948	13,36
384,202	12,29
384,456	15,5
384,71	16,2
384,964	14,44
385,218	15,14
385,472	15,33
385,726	14,95
385,98	14,69
386,234	13,05
386,488	11,8
386,742	14,6
386,996	11,08
387,249	12,34
387,503	14,12
387,757	14,7
388,011	16,49
388,265	15,9
388,518	15,27
388,772	18,14
389,026	19,1
389,28	18,1
389,533	16,56
389,787	17,55
390,041	16,13
390,295	15,61
390,548	16,42
390,802	19,97
391,055	17,88
391,309	15,89
391,563	13,86
391,816	14,63
392,07	15,1
392,323	14,83
392,577	16,82
392,83	17,21
393,084	23,48
393,337	26,33
393,591	27,48
393,844	28,04
394,098	31,84
394,351	35,61
394,604	38,51
394,858	41,15
395,111	40,87
395,364	38,24
395,618	40,99
395,871	38,62
396,124	38,39
396,378	37,5
396,631	36,99
396,884	34,03
397,137	34,27
397,391	36,59
397,644	33,54
397,897	33,93
398,15	34,81
398,403	35,09
398,657	33,71
398,91	33,43
399,163	34,27
399,416	33,76
399,669	33,08
399,922	32,55
400,175	33,03
400,428	36,61
400,681	44,9
400,934	50,22
401,187	59,82
401,44	69,42
401,693	73,23
401,946	75,47
402,199	74,94
402,452	74,7
402,704	71,12
402,957	70,15
403,21	72,85
403,463	70,93
403,716	72,66
403,969	74,04
404,221	74,75
404,474	77,49
404,727	80,86
404,98	82,03
405,232	82,57
405,485	84,08
405,738	85,08
405,99	84,96
406,243	87,62
406,496	89,85
406,748	90,99
407,001	90,98
407,253	91,9
407,506	91,58
407,759	92,98
408,011	88,24
408,264	83,99
408,516	76,35
408,769	64,27
409,021	55,49
409,274	45,04
409,526	41,25
409,778	34,63
410,031	34,44
410,283	31,97
410,536	36,36
410,788	34,78
411,04	34,27
411,293	36,15
411,545	35,89
411,797	33,99
412,049	32,22
412,302	30,48
412,554	31,88
412,806	31
413,058	28,48
413,311	29,33
413,563	27,79
413,815	27,86
414,067	24,56
414,319	23,19
414,571	23,56
414,823	21
415,075	20,06
415,328	20,91
415,58	22,72
415,832	24,5
416,084	25,03
416,336	23,41
416,588	27,9
416,84	25,28
417,091	29,07
417,343	24,19
417,595	26,91
417,847	26,53
418,099	27,71
418,351	27,19
418,603	30,21
418,855	31,17
419,106	30,4
419,358	31,79
419,61	33,69
419,862	35,04
420,114	33,52
420,365	32,72
420,617	33,33
420,869	32,48
421,12	31,47
421,372	33,48
421,624	32,94
421,875	32,86
422,127	28,53
422,379	27,71
422,63	30,81
422,882	30,08
423,133	30,65
423,385	30,22
423,636	30,28
423,888	31,16
424,139	33,35
424,391	29,38
424,642	27,01
424,894	23,05
425,145	23,71
425,396	21,26
425,648	24,89
425,899	21,96
426,151	21,09
426,402	19,29
426,653	19,8
426,905	18,44
427,156	15,67
427,407	14,64
427,658	15,03
427,91	13,32
428,161	11,68
428,412	14,64
428,663	15,2
428,914	16,26
429,166	16,97
429,417	17,83
429,668	16,95
429,919	16,2
430,17	15,68
430,421	16,34
430,672	18,87
430,923	18,39
431,174	19,73
431,425	29,46
431,676	45,46
431,927	64,79
432,178	93,12
432,429	123,45
432,68	151,42
432,931	175,72
433,182	193,22
433,433	199,55
433,683	209,44
433,934	213,49
434,185	213,78
434,436	211,76
434,687	215,3
434,937	217,98
435,188	216,58
435,439	214,58
435,69	215,84
435,94	215,66
436,191	214,26
436,442	213,8
436,692	212,04
436,943	208,15
437,194	206,17
437,444	210,59
437,695	215,35
437,945	216,74
438,196	214,34
438,447	213,14
438,697	213,2
438,948	208,49
439,198	197,36
439,449	176,24
439,699	154,07
439,949	127,65
440,2	98,04
440,45	70,96
440,701	50,04
440,951	34,43
441,201	25,14
441,452	16,22
441,702	12,5
441,952	11,77
442,203	11,44
442,453	6,55
442,703	6,37
442,953	7,23
443,204	8,02
443,454	5,87
443,704	4,77
443,954	1,24
444,204	2,17
444,455	4,3
444,705	6,88
444,955	6,48
445,205	3,02
445,455	-1,11
445,705	-1,28
445,955	-1,56
446,205	-2,6
446,455	-2,43
446,705	-0,78
446,955	-1,67
447,205	1,46
447,455	3,25
447,705	0,27
447,955	-1,21
448,205	-0,32
448,454	-2,91
448,704	-1,39
448,954	-3,7
449,204	-3,1
449,454	-3,89
449,704	-5,97
449,953	-5,65
450,203	-2,41
450,453	-5,39
450,703	-3,76
450,952	-5,26
451,202	-3,54
451,452	-4,48
451,701	-1,39
451,951	2,43
452,201	1,15
452,45	-0,89
452,7	0,15
452,949	0,19
453,199	0,98
453,448	1,28
453,698	3,87
453,947	3,05
454,197	1,89
454,446	0,75
454,696	4,8
454,945	4,03
455,195	1,54
455,444	3,28
455,693	8,53
455,943	6,55
456,192	8,4
456,442	6,78
456,691	7,72
456,94	5,69
457,189	4,99
457,439	7,89
457,688	9,38
457,937	7,93
458,186	8,5
458,436	7,76
458,685	10,28
458,934	8,59
459,183	9,23
459,432	10,79
459,681	10,51
459,93	8,56
460,179	9,11
460,429	7,51
460,678	10,71
460,927	12,53
461,176	12,03
461,425	10,54
461,674	12,19
461,923	12,49
462,172	12,6
462,42	11,31
462,669	13,2
462,918	14,08
463,167	14,56
463,416	11,6
463,665	13,34
463,914	14,62
464,162	14,02
464,411	14,58
464,66	17,32
464,909	16,43
465,158	18,16
465,406	16,77
465,655	19,69
465,904	21,93
466,152	22,28
466,401	22,59
466,65	25,34
466,898	24,87
467,147	21,42
467,395	20,12
467,644	23,12
467,893	21,43
468,141	22,54
468,39	20,08
468,638	19,62
468,887	18,48
469,135	17,61
469,384	18,22
469,632	18,41
469,88	17,77
470,129	19,64
470,377	16,45
470,626	19,72
470,874	20,95
471,122	21,12
471,371	18,76
471,619	16,11
471,867	18,26
472,115	18,36
472,364	15,95
472,612	17,98
472,86	15,99
473,108	17,67
473,356	16,16
473,605	16,33
473,853	13,63
474,101	11,62
474,349	9,53
474,597	11,63
474,845	11,05
475,093	9,38
475,341	7,13
475,589	9,76
475,837	10,64
476,085	13,05
476,333	11,21
476,581	12,4
476,829	12,85
477,077	16,03
477,325	15,95
477,573	17,38
477,821	15,63
478,069	17,9
478,317	17,53
478,564	20,04
478,812	18,6
479,06	17,48
479,308	17,49
479,555	19,1
479,803	19,82
480,051	24,08
480,299	26,83
480,546	29,39
480,794	29,88
481,042	33,59
481,289	35,57
481,537	41,75
481,784	45,99
482,032	54,89
482,28	58,83
482,527	63,37
482,775	68,8
483,022	76,61
483,27	83,74
483,517	92,77
483,765	95,79
484,012	101,7
484,259	104,99
484,507	113,43
484,754	117,33
485,002	122,41
485,249	127,44
485,496	136,3
485,744	140,84
485,991	144,18
486,238	145,8
486,486	153,89
486,733	160,2
486,98	166,39
487,227	166,88
487,474	171,91
487,722	177,4
487,969	176,4
488,216	177,44
488,463	178,34
488,71	176,2
488,957	176,09
489,204	173,99
489,451	175,25
489,699	173,08
489,946	170,12
490,193	166,95
490,44	164,82
490,687	162,18
490,934	155,21
491,18	147,95
491,427	147,54
491,674	145,98
491,921	143,62
492,168	138,16
492,415	132,53
492,662	130,01
492,909	128,12
493,155	122,81
493,402	116,89
493,649	112,31
493,896	110,56
494,142	104,22
494,389	99,85
494,636	95,55
494,883	92,38
495,129	87,04
495,376	80,32
495,623	79,65
495,869	78,08
496,116	76,72
496,362	76,34
496,609	76,92
496,855	80,09
497,102	75,57
497,348	71,9
497,595	71,24
497,841	73,14
498,088	69,36
498,334	65,46
498,581	62,95
498,827	61,4
499,074	58,98
499,32	59,41
499,566	61,7
499,813	59,63
500,059	56,46
500,305	54,61
500,552	51,54
500,798	48,26
501,044	51,5
501,29	48,84
501,537	44,64
501,783	45,05
502,029	47,38
502,275	43,55
502,521	39,34
502,767	38,29
503,013	39,67
503,26	35,19
503,506	30,23
503,752	28,93
503,998	25,79
504,244	23,85
504,49	20,37
504,736	22,22
504,982	19,74
505,228	20,16
505,474	19,37
505,72	19,16
505,966	19,01
506,211	22,04
506,457	22,29
506,703	19,04
506,949	16,12
507,195	12,19
507,441	9,26
507,686	11,17
507,932	10,7
508,178	13,16
508,424	11,11
508,669	7,94
508,915	8,47
509,161	9,78
509,406	10,86
509,652	10,04
509,898	13,71
510,143	14,71
510,389	14,17
510,634	11,21
510,88	16,01
511,125	17,98
511,371	19,02
511,616	20,88
511,862	16,18
512,107	12,58
512,353	11,99
512,598	12,33
512,844	9,59
513,089	7,68
513,335	9,64
513,58	8,33
513,825	7,76
514,071	5,22
514,316	5,01
514,561	5,37
514,806	4,85
515,052	7,3
515,297	5,6
515,542	5,71
515,787	5,66
516,033	7,26
516,278	8,08
516,523	7,4
516,768	6,37
517,013	2,95
517,258	1,99
517,503	1,06
517,748	2,42
517,993	1,53
518,238	1,07
518,483	-1,34
518,728	-1,07
518,973	-3,45
519,218	-5,05
519,463	-2,33
519,708	-3,55
519,953	-5,02
520,198	-4,42
520,443	-2,98
520,688	-0,89
520,933	-2,32
521,177	-2,29
521,422	-5,27
521,667	-1,77
521,912	-1,62
522,157	-5,23
522,401	-2,19
522,646	-1,46
522,891	-0,61
523,135	0,61
523,38	0,11
523,625	-1,29
523,869	0,94
524,114	2,41
524,358	2,12
524,603	2,46
524,848	-0,95
525,092	-1,97
525,337	0,03
525,581	2,87
525,826	5,93
526,07	6,02
526,315	7,71
526,559	7,54
526,803	6,74
527,048	10,82
527,292	12,51
527,537	12,64
527,781	13,32
528,025	12,34
528,269	12,8
528,514	13,57
528,758	13,15
529,002	14,31
529,247	19,05
529,491	17,99
529,735	24,01
529,979	24,47
530,223	25,77
530,467	25,48
530,712	25,06
530,956	24,56
531,2	27,94
531,444	25,82
531,688	27,97
531,932	28,7
532,176	31,6
532,42	35,46
532,664	38,14
532,908	37,45
533,152	36,05
533,396	35,41
533,64	36,81
533,884	36,26
534,128	38,97
534,371	43,78
534,615	49,08
534,859	52,89
535,103	57,3
535,347	60,8
535,59	67,04
535,834	70,88
536,078	79,73
536,322	87,96
536,565	100,74
536,809	108,01
537,053	123,24
537,296	137,1
537,54	154,94
537,784	175,09
538,027	202,2
538,271	228,84
538,514	256,55
538,758	285,57
539,001	311,94
539,245	340,38
539,488	367,19
539,732	395,79
539,975	421,01
540,219	448,91
540,462	473,51
540,706	500,38
540,949	522,78
541,192	546,05
541,436	575
541,679	605,43
541,922	638,02
542,166	669,52
542,409	711,62
542,652	758,88
542,895	806,84
543,139	848,46
543,382	886,67
543,625	916,09
543,868	943,24
544,111	963,28
544,354	979,2
544,598	989,4
544,841	994,46
545,084	993,56
545,327	987,37
545,57	977,52
545,813	965,18
546,056	948,01
546,299	929,93
546,542	915,68
546,785	898,18
547,028	881,8
547,271	861,58
547,514	844,31
547,756	822,19
547,999	805,1
548,242	787,25
548,485	767,36
548,728	749,33
548,971	724,49
549,213	702,78
549,456	671,85
549,699	636,22
549,942	594,68
550,184	545,88
550,427	496,84
550,67	454,23
550,912	412,31
551,155	379,2
551,398	346,72
551,64	317,45
551,883	291,25
552,125	267,75
552,368	247,73
552,61	227,86
552,853	214,59
553,095	198,58
553,338	183,53
553,58	172,52
553,823	159,32
554,065	150,62
554,308	137,11
554,55	125,26
554,792	115,26
555,035	107,29
555,277	99,31
555,519	92,1
555,762	83,88
556,004	79,42
556,246	70,05
556,488	66,01
556,731	56,04
556,973	53,46
557,215	48,67
557,457	45,82
557,699	45,79
