Data from FLMT021711__14__17-55-48-248.txt Node

Date: Tue Nov 05 17:55:48 CET 2024
User: Etudiants TP
Spectrometer: FLMT02171
Trigger mode: 0
Integration Time (sec): 1.000000E-1
Scans to average: 5
Electric dark correction enabled: true
Nonlinearity correction enabled: false
Boxcar width: 15
XAxis mode: Wavelengths
Number of Pixels in Spectrum: 3648
>>>>>Begin Spectral Data<<<<<
194.658	-63.68
194.923	-60.51
195.188	-54.17
195.453	-54.4
195.717	-48.3
195.982	-46.85
196.247	-45.29
196.512	-46.76
196.777	-46.04
197.042	-44.31
197.307	-44.37
197.572	-39.35
197.837	-40.04
198.101	-37.88
198.366	-35.44
198.631	-34.32
198.896	-28.33
199.161	-21.03
199.425	-14.84
199.69	-5.28
199.955	-5.42
200.22	-10.31
200.484	-12
200.749	-12.39
201.014	-11.68
201.278	-13.08
201.543	-12.69
201.807	-12.92
202.072	-10.65
202.337	-10.08
202.601	-9.65
202.866	-10.93
203.13	-9.56
203.395	-10.74
203.659	-10.32
203.924	-11.37
204.189	-10.21
204.453	-8.35
204.717	-6.89
204.982	-4.77
205.246	-2.94
205.511	-0.62
205.775	-2.27
206.04	3.48
206.304	3.5
206.568	6.48
206.833	7.06
207.097	6.77
207.361	7.08
207.626	10.87
207.89	12.24
208.154	13.4
208.419	16.93
208.683	17.33
208.947	21.49
209.211	21.28
209.476	21.8
209.74	22.23
210.004	22.47
210.268	23.48
210.532	25.72
210.796	26.87
211.061	28.03
211.325	27.73
211.589	26.27
211.853	27.71
212.117	26.42
212.381	26.46
212.645	26.17
212.909	27.47
213.173	23.71
213.437	23.85
213.701	24.59
213.965	25.63
214.229	20.73
214.493	21.19
214.757	19.42
215.021	18.92
215.285	23.47
215.549	26.08
215.813	24.03
216.077	22.3
216.34	24.41
216.604	22.9
216.868	24.07
217.132	23.95
217.396	23.56
217.659	25.04
217.923	21.03
218.187	20.5
218.451	19.11
218.714	16.99
218.978	14.91
219.242	15.98
219.505	17.24
219.769	18.6
220.033	18.88
220.296	20.76
220.56	20.14
220.824	18.11
221.087	17.79
221.351	19.08
221.614	18.16
221.878	17.56
222.142	14.72
222.405	15.22
222.669	16.78
222.932	11.64
223.196	10.22
223.459	7.46
223.722	8.29
223.986	7.59
224.249	6.8
224.513	6.54
224.776	6.85
225.04	6.43
225.303	5.87
225.566	5.6
225.83	6.58
226.093	9.78
226.356	8
226.62	6.48
226.883	7.74
227.146	8.77
227.409	8.63
227.673	6.19
227.936	5.07
228.199	4.7
228.462	2.29
228.725	1.48
228.989	0.96
229.252	1.53
229.515	6.69
229.778	5.58
230.041	5.44
230.304	3.67
230.567	5.71
230.83	4.19
231.093	8.1
231.356	7.89
231.619	13.5
231.882	11.65
232.145	14.13
232.408	13.08
232.671	11.8
232.934	10.85
233.197	8.79
233.46	8.6
233.723	10.23
233.986	8.47
234.249	5.82
234.512	7.47
234.775	11.14
235.037	10
235.3	10.9
235.563	10.76
235.826	11.89
236.089	13.08
236.351	12.8
236.614	15.25
236.877	17.34
237.14	19.47
237.402	19.51
237.665	13.54
237.928	12.55
238.19	10.82
238.453	15
238.716	13.23
238.978	12.99
239.241	11.07
239.503	13.51
239.766	8.47
240.029	5.71
240.291	7.46
240.554	7.95
240.816	6.46
241.079	7.44
241.341	7.86
241.604	6.06
241.866	2.06
242.129	3.63
242.391	5.79
242.653	4.64
242.916	4.33
243.178	4.2
243.441	5.42
243.703	4.42
243.965	1.17
244.228	1.36
244.49	0.49
244.752	1.37
245.015	0.53
245.277	3.26
245.539	2.1
245.801	3.58
246.064	3.51
246.326	2.57
246.588	1.89
246.85	3.8
247.112	3.61
247.374	5.75
247.637	7.93
247.899	6.6
248.161	8.63
248.423	3.63
248.685	4.79
248.947	5.57
249.209	5.7
249.471	7.57
249.733	8.47
249.995	8.37
250.257	7.03
250.519	5.58
250.781	9.75
251.043	8.62
251.305	10.61
251.567	11.88
251.829	12.16
252.091	12.72
252.353	8.94
252.615	10.62
252.876	8.36
253.138	7.87
253.4	2.62
253.662	3.97
253.924	5.88
254.185	8.54
254.447	8.66
254.709	7.42
254.971	7.38
255.232	9.06
255.494	6.86
255.756	3.84
256.017	5.89
256.279	5.46
256.541	6.66
256.802	6.27
257.064	6.77
257.326	5.56
257.587	5.02
257.849	5.78
258.11	8.9
258.372	8.5
258.633	9.41
258.895	6.94
259.156	4.93
259.418	2.23
259.679	-1.87
259.941	-3.76
260.202	-2.18
260.464	0.62
260.725	-0.27
260.987	-0.62
261.248	-2.27
261.509	-0.41
261.771	-2.34
262.032	-1.49
262.293	-1.91
262.555	-2.22
262.816	-3.05
263.077	-4.85
263.338	-6.53
263.6	-5.48
263.861	-5.06
264.122	-5.77
264.383	-4.1
264.645	-4.54
264.906	-6.25
265.167	-5.09
265.428	-5.65
265.689	-3.95
265.95	-7.03
266.211	-5.67
266.473	-4.94
266.734	-8.34
266.995	-10.81
267.256	-9.09
267.517	-4.65
267.778	-1.86
268.039	-1.58
268.3	-1.45
268.561	-3.61
268.822	-0.98
269.083	-1.97
269.344	-2.23
269.604	-3.34
269.865	-2.35
270.126	-6.8
270.387	-6.48
270.648	-3.34
270.909	-2.82
271.17	-2.77
271.43	-6.2
271.691	-9.16
271.952	-11.12
272.213	-10.17
272.473	-11.3
272.734	-9.06
272.995	-5.76
273.256	-5.6
273.516	-3.15
273.777	-6.34
274.038	-4.07
274.298	-6.52
274.559	-7.08
274.82	-1.07
275.08	1.28
275.341	1.91
275.601	-0.1
275.862	-2.7
276.122	-0.64
276.383	-0.27
276.643	2.61
276.904	0.31
277.164	2.85
277.425	2.1
277.685	6.82
277.946	7.29
278.206	9.69
278.467	9.7
278.727	7.55
278.987	7.21
279.248	6.49
279.508	8.51
279.768	11.86
280.029	13.91
280.289	10.9
280.549	9.16
280.81	7.81
281.07	5.48
281.33	7.68
281.59	5.56
281.851	8.38
282.111	8.42
282.371	7.57
282.631	9.09
282.891	6.78
283.151	5.88
283.412	4.04
283.672	4.2
283.932	4.22
284.192	5.24
284.452	3.85
284.712	1.11
284.972	0.57
285.232	-2.01
285.492	1.7
285.752	-1.06
286.012	5.86
286.272	7.68
286.532	6.27
286.792	7.31
287.052	9.35
287.312	9.8
287.571	8.94
287.831	9.05
288.091	6.26
288.351	7.68
288.611	12.42
288.871	12.94
289.13	13.68
289.39	9.65
289.65	11.79
289.91	8.7
290.17	11.07
290.429	13.28
290.689	11.09
290.949	7.37
291.208	8.27
291.468	11.53
291.728	11.69
291.987	14.05
292.247	11.12
292.506	13.14
292.766	16.34
293.026	14.27
293.285	15.99
293.545	17.05
293.804	17.04
294.064	11.07
294.323	8.81
294.583	8.64
294.842	9.15
295.102	8.98
295.361	9.52
295.621	10.26
295.88	10.82
296.139	10.65
296.399	10
296.658	3.67
296.917	3.12
297.177	-0.05
297.436	0.74
297.695	-1.04
297.955	0.98
298.214	-1.44
298.473	-1.01
298.732	0.92
298.992	5.71
299.251	5.86
299.51	2.58
299.769	3.37
300.028	1.82
300.287	3.09
300.547	2.26
300.806	-0.61
301.065	3.35
301.324	5.31
301.583	2.43
301.842	-2.25
302.101	-3.69
302.36	-2.82
302.619	-2.44
302.878	-2.55
303.137	-6.04
303.396	-5.1
303.655	-3.26
303.914	-6.91
304.173	-4.96
304.432	-4.79
304.691	-1.17
304.95	-3.3
305.208	2.56
305.467	2.99
305.726	2.51
305.985	4.66
306.244	6.66
306.503	7.17
306.761	6.86
307.02	3.55
307.279	3.08
307.537	3.67
307.796	0.11
308.055	-1.84
308.314	0.2
308.572	-0.72
308.831	0.97
309.09	0.79
309.348	-0.07
309.607	-0.75
309.865	2.85
310.124	3.15
310.382	4.47
310.641	5.06
310.9	3.87
311.158	5.68
311.417	5.03
311.675	5.65
311.933	7.11
312.192	8.07
312.45	7.91
312.709	7.99
312.967	7.8
313.226	6.89
313.484	6.73
313.742	5.77
314.001	3.18
314.259	2.32
314.517	2.83
314.776	3.5
315.034	5.65
315.292	4.13
315.55	1.28
315.809	2.61
316.067	3.39
316.325	1.47
316.583	2.48
316.841	1.72
317.1	0.78
317.358	-1.56
317.616	-2.07
317.874	-1.73
318.132	-2.84
318.39	-4.06
318.648	-5.26
318.906	-5.01
319.164	-6.13
319.422	-6.58
319.68	-8.86
319.938	-8.79
320.196	-8.81
320.454	-6.71
320.712	-6.85
320.97	-5.75
321.228	-8.97
321.486	-8.36
321.744	-7.44
322.002	-5.3
322.26	-6.94
322.517	-8
322.775	-10.5
323.033	-12.17
323.291	-10.25
323.549	-7.66
323.806	-6.81
324.064	-5.65
324.322	-5.49
324.58	-6.21
324.837	-3.33
325.095	-6.34
325.353	-4.85
325.61	-1.56
325.868	-2.72
326.126	-1.23
326.383	-1.53
326.641	-1.18
326.898	0.06
327.156	1.64
327.413	2.52
327.671	2.96
327.928	4.65
328.186	4.21
328.443	2.18
328.701	6.18
328.958	7.2
329.216	8.46
329.473	6.8
329.731	8.15
329.988	7.95
330.245	9.59
330.503	10.77
330.76	9.93
331.017	12.84
331.275	10.44
331.532	10.58
331.789	8.2
332.047	8.06
332.304	5.26
332.561	5.62
332.818	2.48
333.076	6.11
333.333	7.63
333.59	7.77
333.847	9.69
334.104	10
334.361	7.99
334.618	6.28
334.876	3.89
335.133	3.96
335.39	1.69
335.647	3.26
335.904	1
336.161	-0.78
336.418	0.07
336.675	-5.02
336.932	-4.84
337.189	-5
337.446	-2.95
337.703	-5.11
337.96	-9.76
338.216	-8.97
338.473	-12.22
338.73	-10.45
338.987	-10.54
339.244	-7.39
339.501	-10.1
339.757	-8.41
340.014	-7.4
340.271	-5.39
340.528	-5.44
340.785	-1.44
341.041	-2.27
341.298	-6.3
341.555	-7.64
341.811	-9.04
342.068	-11.73
342.325	-11.05
342.581	-8.78
342.838	-7.93
343.094	-8.67
343.351	-8.41
343.608	-11.22
343.864	-8.66
344.121	-6.37
344.377	-7.63
344.634	-8.24
344.89	-8.62
345.147	-8.96
345.403	-11.04
345.66	-10.41
345.916	-7.47
346.172	-10.6
346.429	-11.04
346.685	-12.56
346.942	-12.71
347.198	-16.35
347.454	-14.4
347.711	-14.13
347.967	-17.23
348.223	-16.07
348.48	-17.16
348.736	-13.76
348.992	-15.14
349.248	-12.29
349.504	-13.12
349.761	-12.21
350.017	-11.69
350.273	-11.09
350.529	-11.9
350.785	-10.1
351.041	-10.56
351.297	-9.72
351.554	-10.94
351.81	-13.49
352.066	-15.31
352.322	-15.06
352.578	-13.86
352.834	-15.05
353.09	-15.16
353.346	-14.13
353.602	-15.94
353.858	-15.07
354.114	-14.7
354.369	-13.01
354.625	-10.44
354.881	-12.6
355.137	-10.83
355.393	-10.39
355.649	-10.45
355.905	-9.56
356.16	-8.89
356.416	-6.78
356.672	-14.55
356.928	-13.94
357.183	-14.11
357.439	-13.46
357.695	-15.67
357.951	-10.65
358.206	-11.7
358.462	-11.86
358.718	-15.77
358.973	-14.09
359.229	-12.99
359.484	-10.94
359.74	-7.23
359.996	-5.91
360.251	-2.78
360.507	-3.53
360.762	-3.21
361.018	-1.65
361.273	-4.94
361.529	-3.86
361.784	-5.99
362.04	-4.55
362.295	-5.63
362.55	-5.19
362.806	-2.41
363.061	-1.28
363.316	-1
363.572	-0.8
363.827	1.6
364.082	-2.99
364.338	-4.23
364.593	-2.04
364.848	-0.58
365.104	-1.95
365.359	0.76
365.614	2.68
365.869	-0.95
366.124	0.72
366.38	-0.33
366.635	2.66
366.89	3.28
367.145	3.71
367.4	6.38
367.655	5.36
367.91	5.11
368.165	3
368.42	0.97
368.675	1.88
368.93	2.58
369.185	1.89
369.44	3.29
369.695	6.35
369.95	5.18
370.205	5.45
370.46	4.14
370.715	3.27
370.97	4.93
371.225	5.44
371.48	6.48
371.734	6.47
371.989	8.66
372.244	9.28
372.499	10.67
372.754	10.36
373.008	7.2
373.263	2.05
373.518	3.38
373.773	2.72
374.027	0.01
374.282	2.25
374.537	2.67
374.791	3.42
375.046	0.54
375.301	-1.65
375.555	-4.01
375.81	-2.4
376.064	-1.18
376.319	2.67
376.573	1.84
376.828	-1.74
377.082	3.56
377.337	1.12
377.591	-1.66
377.846	-0.32
378.1	2.15
378.355	2.87
378.609	2.41
378.863	-0.87
379.118	-0.23
379.372	-0.71
379.627	-3.29
379.881	-4.31
380.135	-5.03
380.389	-6.65
380.644	-7.29
380.898	-5.37
381.152	-3.07
381.407	-3.93
381.661	-3.07
381.915	-0.62
382.169	0.18
382.423	-0.94
382.677	-4.46
382.932	-4.13
383.186	-3.12
383.44	-1.31
383.694	0.36
383.948	-1.47
384.202	-2.76
384.456	0.16
384.71	2.18
384.964	-0.19
385.218	1.78
385.472	1.54
385.726	0.17
385.98	-1
386.234	-2.4
386.488	-5.19
386.742	-4.59
386.996	-7.42
387.249	-6.89
387.503	-4.38
387.757	-3.15
388.011	-2.41
388.265	-1.47
388.518	0.16
388.772	2.31
389.026	2.36
389.28	0.95
389.533	1.55
389.787	3.93
390.041	1.19
390.295	1.88
390.548	2.81
390.802	6.97
391.055	5.66
391.309	4.31
391.563	0.79
391.816	1.28
392.07	-0.1
392.323	-0.53
392.577	-0.1
392.83	1.98
393.084	7.13
393.337	11.69
393.591	12.95
393.844	13.33
394.098	18.14
394.351	21.54
394.604	22.97
394.858	25.26
395.111	25.55
395.364	23.48
395.618	25.73
395.871	23.85
396.124	21.59
396.378	20.77
396.631	20.74
396.884	19.12
397.137	18.32
397.391	17.81
397.644	14.2
397.897	14.78
398.15	14.92
398.403	17.48
398.657	15.27
398.91	15.33
399.163	15.99
399.416	16.87
399.669	16.06
399.922	15.59
400.175	13.45
400.428	12.16
400.681	11.8
400.934	7.15
401.187	5.32
401.44	5.03
401.693	3.6
401.946	-1.32
402.199	-5.86
402.452	-6.35
402.704	-9.57
402.957	-11.43
403.21	-9.05
403.463	-11.72
403.716	-10.75
403.969	-7.8
404.221	-8.68
404.474	-8.2
404.727	-5.56
404.98	-3.48
405.232	-2.64
405.485	-0.7
405.738	2.5
405.99	1.89
406.243	2.53
406.496	3.37
406.748	2.29
407.001	0.46
407.253	-0.35
407.506	-0.61
407.759	-0.11
408.011	-2.51
408.264	-0.91
408.516	-1.03
408.769	-3.12
409.021	-2.39
409.274	-1.64
409.526	0.54
409.778	0.38
410.031	4.75
410.283	4.76
410.536	10.12
410.788	8.32
411.04	6.81
411.293	8.76
411.545	9.15
411.797	6.85
412.049	7.04
412.302	7.83
412.554	8.8
412.806	6.99
413.058	4.18
413.311	4.82
413.563	2.44
413.815	3.47
414.067	0.66
414.319	1.23
414.571	3.39
414.823	2.66
415.075	2.3
415.328	2.69
415.58	5.3
415.832	7.83
416.084	8.36
416.336	7.67
416.588	11.63
416.84	10.47
417.091	12.07
417.343	9.93
417.595	12.64
417.847	12.47
418.099	12.13
418.351	11.12
418.603	13.67
418.855	15.08
419.106	15.22
419.358	16.24
419.61	16.19
419.862	17.7
420.114	16.09
420.365	15.52
420.617	17.73
420.869	16.51
421.12	15.52
421.372	15.61
421.624	14.03
421.875	13.5
422.127	10.74
422.379	10.13
422.63	12.76
422.882	11.64
423.133	12.39
423.385	12.22
423.636	13.25
423.888	14.4
424.139	15.2
424.391	13.4
424.642	10.78
424.894	9.57
425.145	8.66
425.396	4.82
425.648	6.54
425.899	6.04
426.151	6.16
426.402	6.36
426.653	6.05
426.905	6.04
427.156	4.05
427.407	4.8
427.658	3.21
427.91	1.63
428.161	0.36
428.412	-0.24
428.663	1.93
428.914	2.59
429.166	4.94
429.417	5.08
429.668	4.59
429.919	2.49
430.17	1.8
430.421	1.81
430.672	5.16
430.923	5.27
431.174	3.61
431.425	4.28
431.676	3.68
431.927	1.93
432.178	3.19
432.429	3.95
432.68	2.34
432.931	5.3
433.182	10.04
433.433	7.82
433.683	9.67
433.934	8.33
434.185	6.63
434.436	4.05
434.687	4.15
434.937	6.35
435.188	5.77
435.439	5.75
435.69	7.12
435.94	5.99
436.191	7.8
436.442	6.56
436.692	5.16
436.943	1.89
437.194	1.43
437.444	5.08
437.695	10.17
437.945	10.56
438.196	8.88
438.447	8.34
438.697	7.34
438.948	7.37
439.198	3.48
439.449	-0.54
439.699	0.5
439.949	-0.2
440.2	-0.32
440.45	1.15
440.701	-0.17
440.951	-1.13
441.201	-1.23
441.452	-3.1
441.702	-3.15
441.952	-0.14
442.203	1.72
442.453	0.08
442.703	1.44
442.953	1.2
443.204	2.09
443.454	-0.05
443.704	1.57
443.954	-2.23
444.204	-0.64
444.455	1.46
444.705	4.84
444.955	5.79
445.205	3.69
445.455	-0.06
445.705	0.51
445.955	1.39
446.205	-0.18
446.455	0.98
446.705	2.56
446.955	4.82
447.205	5.94
447.455	6.29
447.705	3.5
447.955	2.35
448.205	2.67
448.454	2.98
448.704	3.38
448.954	3.6
449.204	4.91
449.454	5.71
449.704	2.83
449.953	1.96
450.203	4.53
450.453	0.93
450.703	2.81
450.952	1.47
451.202	3.53
451.452	2.9
451.701	6.99
451.951	11.89
452.201	11.54
452.45	8.56
452.7	8.86
452.949	9.7
453.199	10.91
453.448	12.15
453.698	12.23
453.947	11.42
454.197	11.47
454.446	9.88
454.696	12.26
454.945	13.14
455.195	12.64
455.444	15.34
455.693	19.57
455.943	18.07
456.192	19.3
456.442	19.27
456.691	18.57
456.94	17.1
457.189	14.97
457.439	17.99
457.688	19.74
457.937	19.71
458.186	21.62
458.436	21.61
458.685	24.12
458.934	22.86
459.183	22.32
459.432	23.81
459.681	21.49
459.93	19.38
460.179	20.98
460.429	19.46
460.678	21.37
460.927	23.98
461.176	23.65
461.425	24.84
461.674	27.75
461.923	27.02
462.172	25.69
462.42	24.85
462.669	26.17
462.918	25.75
463.167	26.1
463.416	22.29
463.665	22.65
463.914	22.06
464.162	19.81
464.411	21.52
464.66	23.71
464.909	22.82
465.158	21.5
465.406	21.8
465.655	22.69
465.904	24.12
466.152	24.54
466.401	23.28
466.65	24.81
466.898	24.29
467.147	19.97
467.395	20.47
467.644	22.93
467.893	22
468.141	23.65
468.39	20.61
468.638	18.1
468.887	17.02
469.135	15.6
469.384	15.73
469.632	17.47
469.88	18.16
470.129	19.02
470.377	16.44
470.626	19.31
470.874	20.32
471.122	23.52
471.371	23.05
471.619	22.57
471.867	25.93
472.115	25.64
472.364	24.07
472.612	27.99
472.86	27.75
473.108	27.96
473.356	26.79
473.605	25.71
473.853	22.97
474.101	23.57
474.349	22.8
474.597	25.68
474.845	25.72
475.093	24.11
475.341	22.64
475.589	23.44
475.837	23.06
476.085	25.79
476.333	24.51
476.581	25.81
476.829	25.13
477.077	27.24
477.325	26.93
477.573	29.42
477.821	26.94
478.069	27.8
478.317	27.2
478.564	29.11
478.812	26.12
479.06	25.84
479.308	24.94
479.555	24.78
479.803	22.04
480.051	23.73
480.299	23.34
480.546	23.45
480.794	19.51
481.042	20.84
481.289	20.25
481.537	21.73
481.784	20.56
482.032	22.7
482.28	21.69
482.527	21.53
482.775	22.02
483.022	22.56
483.27	22.13
483.517	26.23
483.765	24.34
484.012	22.69
484.259	19.49
484.507	22.8
484.754	23.42
485.002	22.58
485.249	20.13
485.496	22.99
485.744	23.44
485.991	21
486.238	18.89
486.486	22.09
486.733	21.5
486.98	23.67
487.227	22.9
487.474	25.58
487.722	26.98
487.969	24.41
488.216	24.02
488.463	26.02
488.71	23.24
488.957	22.46
489.204	23.67
489.451	24.03
489.699	23.94
489.946	22.12
490.193	21.07
490.44	20.18
490.687	21.03
490.934	20.4
491.18	16.28
491.427	17.85
491.674	22.21
491.921	23.84
492.168	22.98
492.415	19.43
492.662	21.51
492.909	24.46
493.155	23.9
493.402	23.31
493.649	22.69
493.896	22.76
494.142	20.34
494.389	21.71
494.636	18.84
494.883	16.06
495.129	14.91
495.376	13.78
495.623	15.69
495.869	17.44
496.116	18.91
496.362	20.75
496.609	24.17
496.855	27.67
497.102	27.46
497.348	27.23
497.595	27.18
497.841	31.24
498.088	30.29
498.334	29.44
498.581	27.04
498.827	27.65
499.074	28.53
499.32	30.31
499.566	34.25
499.813	33.39
500.059	32.79
500.305	32.18
500.552	30.75
500.798	29.73
501.044	32.98
501.29	31.66
501.537	29.28
501.783	30.39
502.029	33.26
502.275	32.7
502.521	32.02
502.767	32.43
503.013	34.95
503.26	31.69
503.506	28.21
503.752	28.39
503.998	27.09
504.244	26.57
504.49	24.59
504.736	26.25
504.982	25.41
505.228	28.63
505.474	29.19
505.72	29.42
505.966	28.29
506.211	32.44
506.457	32.43
506.703	28.25
506.949	25.72
507.195	22.86
507.441	20.15
507.686	22.53
507.932	22.32
508.178	24.43
508.424	22.79
508.669	19.57
508.915	20.98
509.161	23.45
509.406	24.1
509.652	23.04
509.898	25.56
510.143	27.32
510.389	26.96
510.634	22.22
510.88	26.76
511.125	29.11
511.371	30.4
511.616	31.52
511.862	29.27
512.107	25.25
512.353	26.58
512.598	27.26
512.844	24.81
513.089	21.85
513.335	23.28
513.58	23.95
513.825	24.51
514.071	23.1
514.316	25.12
514.561	25.86
514.806	24.07
515.052	27.94
515.297	26.92
515.542	27.22
515.787	26.86
516.033	30.68
516.278	31.69
516.523	31.1
516.768	29.85
517.013	28.58
517.258	28.18
517.503	28.92
517.748	28.26
517.993	28.39
518.238	29.67
518.483	28.09
518.728	28.87
518.973	27.44
519.218	26.97
519.463	27.32
519.708	27.24
519.953	24.74
520.198	25.5
520.443	26.63
520.688	29.55
520.933	29.35
521.177	29.73
521.422	26.91
521.667	30.35
521.912	29.76
522.157	26.8
522.401	30.82
522.646	30.11
522.891	29.54
523.135	29.93
523.38	29.93
523.625	27.03
523.869	29.49
524.114	31.66
524.358	31.34
524.603	31.41
524.848	28.87
525.092	28.06
525.337	29.87
525.581	30.35
525.826	31.15
526.07	31.36
526.315	31.49
526.559	31.1
526.803	28.98
527.048	32.69
527.292	34.09
527.537	33.54
527.781	32.66
528.025	31.73
528.269	32.91
528.514	33.65
528.758	32.35
529.002	32.01
529.247	34.4
529.491	34.08
529.735	38.92
529.979	37.87
530.223	38.21
530.467	36.06
530.712	35.02
530.956	34.57
531.2	35.73
531.444	32.89
531.688	33.97
531.932	33.59
532.176	35.53
532.42	36.83
532.664	37.39
532.908	36.39
533.152	35.72
533.396	36.39
533.64	35.78
533.884	33.85
534.128	32.81
534.371	33.86
534.615	34.79
534.859	33.94
535.103	33.4
535.347	32.54
535.59	34.28
535.834	30.66
536.078	31.26
536.322	33.86
536.565	37.88
536.809	36.94
537.053	38.7
537.296	37.47
537.54	37.97
537.784	38.38
538.027	41.6
538.271	40.25
538.514	39.23
538.758	38.9
539.001	37.6
539.245	37.16
539.488	38
539.732	37.74
539.975	39.42
540.219	41.06
540.462	41.21
540.706	43.02
540.949	42.98
541.192	43.32
541.436	48.56
541.679	53.88
541.922	54.91
542.166	50.36
542.409	51.96
542.652	52.83
542.895	54.94
543.139	55.25
543.382	60.87
543.625	59.72
543.868	58.04
544.111	56.89
544.354	54.41
544.598	54.11
544.841	54.47
545.084	53.47
545.327	52.28
545.57	51.72
545.813	54
546.056	54.18
546.299	54.98
546.542	57.93
546.785	60.02
547.028	60.46
547.271	60.77
547.514	59.45
547.756	57.1
547.999	57.62
548.242	58.9
548.485	56.71
548.728	57.64
548.971	53.75
549.213	52.2
549.456	51.97
549.699	51.19
549.942	49.27
550.184	49.21
550.427	47.93
550.67	48
550.912	42.38
551.155	45.1
551.398	44.5
551.64	43.25
551.883	43.76
552.125	42.67
552.368	41.84
552.61	39.83
552.853	41.21
553.095	40.53
553.338	40.11
553.58	40.15
553.823	39.51
554.065	41.18
554.308	37.56
554.55	35.83
554.792	34.15
555.035	34.01
555.277	34.01
555.519	34.72
555.762	31.65
556.004	32.47
556.246	29.15
556.488	29.81
556.731	28.04
556.973	29.67
557.215	29.99
557.457	33.73
557.699	37.02
557.941	35.56
558.183	35.12
558.426	38.19
558.668	34.6
558.91	37
559.152	37.98
559.394	36.79
559.636	38.65
559.878	39.33
560.12	38.39
560.362	40.99
560.604	41.05
560.845	41.27
561.087	40.91
561.329	42.71
561.571	40.94
561.813	42.58
562.055	41.9
562.297	42.44
562.538	42.08
