Data from FLMT021711__0__17-53-08-159.txt Node

Date: Tue Nov 05 17:53:08 CET 2024
User: Etudiants TP
Spectrometer: FLMT02171
Trigger mode: 0
Integration Time (sec): 1.000000E-1
Scans to average: 5
Electric dark correction enabled: true
Nonlinearity correction enabled: false
Boxcar width: 15
XAxis mode: Wavelengths
Number of Pixels in Spectrum: 3648
>>>>>Begin Spectral Data<<<<<
194.658	-60.26
194.923	-59.08
195.188	-53.63
195.453	-52.51
195.717	-47.18
195.982	-45.38
196.247	-44.75
196.512	-47.45
196.777	-46.59
197.042	-45.58
197.307	-45.17
197.572	-40.32
197.837	-41.35
198.101	-37.86
198.366	-35.75
198.631	-33.8
198.896	-27.84
199.161	-21.22
199.425	-14.44
199.69	-3.59
199.955	-4.5
200.22	-8.36
200.484	-8.8
200.749	-10.05
201.014	-7.72
201.278	-6.94
201.543	-5.3
201.807	-6.16
202.072	-4.51
202.337	-5.74
202.601	-6.23
202.866	-7.77
203.13	-6.22
203.395	-7.61
203.659	-7.68
203.924	-8.53
204.189	-7.69
204.453	-5.59
204.717	-2.53
204.982	-0.63
205.246	1.27
205.511	2.8
205.775	2.23
206.04	9.2
206.304	9.25
206.568	11.3
206.833	12.12
207.097	13.43
207.361	14.07
207.626	16.72
207.89	17.7
208.154	18.88
208.419	22.19
208.683	22.39
208.947	24.5
209.211	23.28
209.476	22.73
209.74	22.33
210.004	23.61
210.268	23.76
210.532	25.72
210.796	26.74
211.061	27.8
211.325	28.99
211.589	27.66
211.853	28.95
212.117	27.78
212.381	27.34
212.645	26.99
212.909	26.67
213.173	24.17
213.437	23.8
213.701	24.19
213.965	24.85
214.229	19.91
214.493	18.79
214.757	17.86
215.021	16.94
215.285	20.25
215.549	22.24
215.813	21.46
216.077	19.37
216.34	21.13
216.604	20.1
216.868	20.57
217.132	19.37
217.396	18.81
217.659	19.01
217.923	14.87
218.187	14.43
218.451	13.4
218.714	11.62
218.978	11.13
219.242	13.41
219.505	13.63
219.769	16.04
220.033	16.33
220.296	18.21
220.56	19.34
220.824	17.03
221.087	17.93
221.351	17.34
221.614	17.65
221.878	18.08
222.142	16.08
222.405	15.4
222.669	17.24
222.932	13.2
223.196	10.9
223.459	7.8
223.722	8.89
223.986	6.86
224.249	5.92
224.513	5.37
224.776	4.9
225.04	4.67
225.303	5.12
225.566	4.84
225.83	6.76
226.093	10.73
226.356	8.14
226.62	7.41
226.883	9.98
227.146	10.87
227.409	10.25
227.673	7.62
227.936	6.29
228.199	5.8
228.462	4.1
228.725	3.22
228.989	3.79
229.252	5.02
229.515	11.14
229.778	9.1
230.041	7.78
230.304	5.05
230.567	7.09
230.83	5.73
231.093	8.21
231.356	8.89
231.619	14.31
231.882	12.48
232.145	14.81
232.408	13.48
232.671	13.19
232.934	12.83
233.197	11.84
233.46	10.91
233.723	12.6
233.986	11.28
234.249	8.76
234.512	12.03
234.775	16.36
235.037	14.15
235.3	13.71
235.563	12.63
235.826	14.88
236.089	16.69
236.351	15.92
236.614	19.24
236.877	19.78
237.14	21.57
237.402	20.77
237.665	13.52
237.928	13.71
238.19	13.13
238.453	16.06
238.716	14.83
238.978	14.64
239.241	13.13
239.503	14.78
239.766	9.98
240.029	8.57
240.291	11.65
240.554	11.05
240.816	10.29
241.079	11.04
241.341	10.36
241.604	9.58
241.866	6.6
242.129	7.7
242.391	10.01
242.653	8.47
242.916	6.97
243.178	7.04
243.441	7.83
243.703	6.86
243.965	4.42
244.228	4.74
244.49	4.94
244.752	4.7
245.015	4.87
245.277	7.37
245.539	6.62
245.801	9.03
246.064	8.85
246.326	8.68
246.588	9.36
246.85	10.92
247.112	11.34
247.374	13.04
247.637	16.44
247.899	15.98
248.161	17.24
248.423	12.27
248.685	15.02
248.947	15.49
249.209	16.01
249.471	16.29
249.733	17.51
249.995	15.03
250.257	14.16
250.519	11.66
250.781	14.96
251.043	12.88
251.305	15.02
251.567	15.38
251.829	17.77
252.091	18.14
252.353	12.9
252.615	13.42
252.876	10.07
253.138	9.6
253.4	5.45
253.662	5.42
253.924	7.49
254.185	8.96
254.447	8.85
254.709	8.52
254.971	9.39
255.232	11.22
255.494	10.11
255.756	6.75
256.017	6.44
256.279	7.92
256.541	8.27
256.802	7.88
257.064	8.78
257.326	7.15
257.587	9.09
257.849	10.31
258.11	14.74
258.372	15.54
258.633	18.2
258.895	16.94
259.156	16.52
259.418	14.6
259.679	11.35
259.941	8.9
260.202	10.12
260.464	13.54
260.725	12.23
260.987	12.63
261.248	10.85
261.509	12.19
261.771	10.83
262.032	11.95
262.293	11.48
262.555	11.61
262.816	9.43
263.077	7.2
263.338	5.16
263.6	5.57
263.861	5.11
264.122	5.06
264.383	7.02
264.645	8.1
264.906	6.5
265.167	5.67
265.428	5.22
265.689	6.49
265.95	4.43
266.211	5.16
266.473	4.57
266.734	0.76
266.995	-1.17
267.256	-0.21
267.517	3.1
267.778	6.63
268.039	6.82
268.3	6.54
268.561	5.48
268.822	9.54
269.083	8.43
269.344	8.08
269.604	6.5
269.865	8.42
270.126	3.95
270.387	5.03
270.648	6.11
270.909	6.07
271.17	4.87
271.43	0.41
271.691	-1.41
271.952	-1.63
272.213	0.23
272.473	-3.38
272.734	-2.36
272.995	-0.45
273.256	0.34
273.516	3.48
273.777	0.37
274.038	2.16
274.298	-0.62
274.559	-0.79
274.82	3.74
275.08	5.38
275.341	7
275.601	4.51
275.862	3.6
276.122	4.63
276.383	5.2
276.643	5.77
276.904	4
277.164	6.67
277.425	7.22
277.685	11.19
277.946	11.62
278.206	14.7
278.467	15.93
278.727	15.81
278.987	14.31
279.248	14.66
279.508	17.6
279.768	20.05
280.029	21.24
280.289	18.93
280.549	17.99
280.81	17.8
281.07	16.99
281.33	18.68
281.59	16.95
281.851	18.83
282.111	17.56
282.371	18.59
282.631	19.29
282.891	16.47
283.151	14.34
283.412	11.87
283.672	11.22
283.932	11.16
284.192	12.22
284.452	10.72
284.712	8.63
284.972	7.04
285.232	3.39
285.492	6.15
285.752	3.27
286.012	7.98
286.272	8.93
286.532	5.4
286.792	6.44
287.052	9.44
287.312	9.49
287.571	8.22
287.831	8.01
288.091	4.98
288.351	5.05
288.611	8.42
288.871	8.59
289.13	8.37
289.39	3.48
289.65	5.37
289.91	2.79
290.17	5.29
290.429	6.51
290.689	4.47
290.949	2.69
291.208	5.37
291.468	8.58
291.728	9.99
291.987	11.1
292.247	9.61
292.506	11.31
292.766	14.1
293.026	13.83
293.285	16.05
293.545	17.87
293.804	18.89
294.064	14.34
294.323	11.9
294.583	14.51
294.842	14.37
295.102	15.28
295.361	16.45
295.621	17.41
295.88	18.03
296.139	18.49
296.399	20.01
296.658	14.95
296.917	13.63
297.177	10.71
297.436	13.55
297.695	10.93
297.955	13.42
298.214	11.65
298.473	12.63
298.732	15.37
298.992	19.26
299.251	17.63
299.51	14.24
299.769	15.82
300.028	14.81
300.287	15.1
300.547	15.21
300.806	13.99
301.065	16.85
301.324	18.25
301.583	13.08
301.842	9.97
302.101	9.36
302.36	10.9
302.619	9.22
302.878	8.82
303.137	6.28
303.396	6.96
303.655	8.5
303.914	5.38
304.173	6.17
304.432	5.45
304.691	9.6
304.95	8.61
305.208	13.59
305.467	13.32
305.726	13.51
305.985	14.18
306.244	16.22
306.503	15.82
306.761	13.67
307.02	10.28
307.279	10.13
307.537	10.49
307.796	6.92
308.055	5.39
308.314	6.37
308.572	4.18
308.831	5.11
309.09	5.22
309.348	5.56
309.607	6.06
309.865	9.38
310.124	8.34
310.382	8.9
310.641	10.11
310.9	8.07
311.158	9.51
311.417	8.51
311.675	8.86
311.933	10.61
312.192	11.31
312.45	11.45
312.709	9.98
312.967	9.62
313.226	8.92
313.484	8.99
313.742	7.67
314.001	5.6
314.259	3.61
314.517	4.12
314.776	7.44
315.034	10.29
315.292	9.93
315.55	8.7
315.809	8.8
316.067	9.33
316.325	7.46
316.583	8.59
316.841	7.08
317.1	4.78
317.358	2.07
317.616	1.14
317.874	-0.04
318.132	-0.22
318.39	-0.61
318.648	-1.38
318.906	-0.82
319.164	-1.21
319.422	-0.78
319.68	-2.62
319.938	-2.89
320.196	-3.38
320.454	-1.86
320.712	-1.7
320.97	-2.62
321.228	-5.01
321.486	-3.99
321.744	-2.37
322.002	0.85
322.26	-0.21
322.517	-0.27
322.775	-4.73
323.033	-6.57
323.291	-5.29
323.549	-3.88
323.806	-2.8
324.064	-1.93
324.322	-0.98
324.58	-2.3
324.837	-0.22
325.095	-1.99
325.353	0.28
325.61	3.13
325.868	2.64
326.126	4.98
326.383	3.74
326.641	3.42
326.898	5.2
327.156	5.22
327.413	5.02
327.671	5.9
327.928	8.82
328.186	10.04
328.443	8.15
328.701	12.12
328.958	15.13
329.216	16.45
329.473	15.78
329.731	16.77
329.988	15.06
330.245	16.9
330.503	17.27
330.76	17.84
331.017	19.77
331.275	17.69
331.532	18.56
331.789	16.62
332.047	15.86
332.304	12.59
332.561	14.31
332.818	13.6
333.076	15.23
333.333	15.02
333.59	14.97
333.847	16.29
334.104	15.23
334.361	14
334.618	12.96
334.876	10.2
335.133	10.12
335.39	8.26
335.647	9.1
335.904	5.77
336.161	2.89
336.418	3.62
336.675	0.4
336.932	0.75
337.189	-1.12
337.446	-0.66
337.703	-2.13
337.96	-5.44
338.216	-5.13
338.473	-7.33
338.73	-5.57
338.987	-6.54
339.244	-2.76
339.501	-6.42
339.757	-4.05
340.014	-2.7
340.271	-0.01
340.528	-0.49
340.785	3.01
341.041	3.13
341.298	1.77
341.555	0.85
341.811	0.25
342.068	-3.15
342.325	-2.76
342.581	0.03
342.838	1.93
343.094	2.19
343.351	2.63
343.608	-0.55
343.864	1.45
344.121	3.94
344.377	2.78
344.634	1.44
344.89	-0.26
345.147	0.91
345.403	-0.96
345.66	-1.47
345.916	1.29
346.172	-0.73
346.429	-1.13
346.685	-2.76
346.942	-1.43
347.198	-5.07
347.454	-1.93
347.711	-2.26
347.967	-5.31
348.223	-4.04
348.48	-5.11
348.736	-2.73
348.992	-3.27
349.248	-2.01
349.504	-2.12
349.761	-1.41
350.017	0.67
350.273	1.32
350.529	0.05
350.785	-0.45
351.041	-1.48
351.297	0.68
351.554	1.24
351.81	-0.87
352.066	-2.93
352.322	-1.82
352.578	-1.14
352.834	-0.69
353.09	-0.52
353.346	0.68
353.602	-0.19
353.858	-1.16
354.114	-1.21
354.369	0.6
354.625	2.16
354.881	-0.94
355.137	1.4
355.393	1.33
355.649	2.09
355.905	2.96
356.16	1.61
356.416	2.15
356.672	-5.18
356.928	-4.67
357.183	-4.82
357.439	-4.58
357.695	-6.9
357.951	-2.38
358.206	-2.59
358.462	-3.38
358.718	-5.47
358.973	-5.34
359.229	-5.62
359.484	-5.63
359.74	-2.03
359.996	-1.3
360.251	1.3
360.507	1.12
360.762	0.04
361.018	2.26
361.273	0.18
361.529	1.67
361.784	1.75
362.04	2.55
362.295	0.59
362.55	1.41
362.806	5.42
363.061	5.96
363.316	6.68
363.572	5.93
363.827	7.62
364.082	5.37
364.338	6.23
364.593	7.74
364.848	8.98
365.104	8.93
365.359	10.15
365.614	11.31
365.869	8.29
366.124	9.15
366.38	8.37
366.635	10.06
366.89	10.93
367.145	9.41
367.4	12.9
367.655	11.97
367.91	12.54
368.165	9.77
368.42	7.75
368.675	9.41
368.93	8.89
369.185	7
369.44	5.91
369.695	7.66
369.95	7.32
370.205	7.97
370.46	6.79
370.715	5.55
370.97	5.66
371.225	4.47
371.48	5.75
371.734	5.57
371.989	8.55
372.244	8.31
372.499	10.38
372.754	9.27
373.008	5.96
373.263	3.45
373.518	5.39
373.773	3.22
374.027	0.28
374.282	3.06
374.537	4.34
374.791	6.23
375.046	6.36
375.301	4.77
375.555	2.65
375.81	3.91
376.064	5.14
376.319	8.26
376.573	6.87
376.828	3.71
377.082	7.57
377.337	5.31
377.591	2.14
377.846	2.64
378.1	4.51
378.355	4
378.609	3.86
378.863	0.49
379.118	2.27
379.372	0.72
379.627	-0.29
379.881	-3.72
380.135	-3.16
380.389	-4.4
380.644	-3.83
380.898	-2.7
381.152	-1.89
381.407	-3.16
381.661	-1.22
381.915	1.67
382.169	1.69
382.423	-0.32
382.677	-3.55
382.932	-2.59
383.186	-1.63
383.44	-1.23
383.694	1.32
383.948	-1.57
384.202	-3.58
384.456	-1.38
384.71	0.46
384.964	-0.14
385.218	2.58
385.472	4.1
385.726	2.99
385.98	2.04
386.234	2.91
386.488	-1.04
386.742	1.12
386.996	-1.13
387.249	0.55
387.503	2.64
387.757	4.91
388.011	5.96
388.265	7.4
388.518	8.8
388.772	10.96
389.026	11.77
389.28	9.3
389.533	8.74
389.787	11.4
390.041	9.36
390.295	11
390.548	10.4
390.802	12.33
391.055	11.87
391.309	12.13
391.563	9.16
391.816	11.05
392.07	11.53
392.323	12.36
392.577	11.91
392.83	12.98
393.084	18.5
393.337	21.15
393.591	22.89
393.844	24.31
394.098	26.89
394.351	31.67
394.604	33.01
394.858	35.03
395.111	34.32
395.364	31.32
395.618	32.48
395.871	29.5
396.124	28.01
396.378	26.38
396.631	24.78
396.884	22.9
397.137	23.64
397.391	25.35
397.644	21.27
397.897	22.13
398.15	23.1
398.403	27.37
398.657	25.76
398.91	24.31
399.163	25.18
399.416	24.35
399.669	23.7
399.922	22.21
400.175	19.37
400.428	19.63
400.681	19.36
400.934	14.21
401.187	12.85
401.44	12.39
401.693	9.62
401.946	6.16
402.199	2.18
402.452	0.93
402.704	-2.9
402.957	-3.56
403.21	-1.66
403.463	-2.33
403.716	-1.38
403.969	0
404.221	-0.75
404.474	1.63
404.727	4.59
404.98	7.91
405.232	8.12
405.485	10.58
405.738	11.4
405.99	11.5
406.243	10.67
406.496	14.47
406.748	14.95
407.001	13.48
407.253	14
407.506	13.49
407.759	15.39
408.011	12.8
408.264	13.47
408.516	13.08
408.769	12.43
409.021	14.24
409.274	13.65
409.526	16.18
409.778	16.68
410.031	20.02
410.283	20.23
410.536	25.36
410.788	24.49
411.04	24.45
411.293	24.77
411.545	25.64
411.797	23.64
412.049	23.23
412.302	24.22
412.554	25.36
412.806	23.03
413.058	20.17
413.311	19.62
413.563	19.02
413.815	18.14
414.067	15.99
414.319	13.85
414.571	14.04
414.823	11.83
415.075	11.58
415.328	11.35
415.58	14.17
415.832	17.87
416.084	18.81
416.336	18.29
416.588	21.59
416.84	19.39
417.091	23.14
417.343	18.93
417.595	19.05
417.847	18.66
418.099	19.25
418.351	18.21
418.603	20.29
418.855	20.94
419.106	22.01
419.358	21.84
419.61	22.32
419.862	24.19
420.114	21.94
420.365	21.33
420.617	21.7
420.869	21.11
421.12	21.39
421.372	21.85
421.624	21.37
421.875	23.01
422.127	19.78
422.379	21.14
422.63	25.1
422.882	23.92
423.133	25.34
423.385	23.96
423.636	24.52
423.888	25.7
424.139	27.85
424.391	24.87
424.642	24.39
424.894	21.8
425.145	23.3
425.396	22.99
425.648	25.71
425.899	23.58
426.151	24.11
426.402	23.03
426.653	23.24
426.905	22.61
427.156	21.27
427.407	20.78
427.658	19.98
427.91	18.43
428.161	17.86
428.412	19.54
428.663	20.57
428.914	21.12
429.166	22.38
429.417	23.5
429.668	22.78
429.919	20.41
430.17	18.5
430.421	17.93
430.672	21.27
430.923	21.32
431.174	20.58
431.425	20.12
431.676	19.6
431.927	16.05
432.178	17.73
432.429	18.74
432.68	19.42
432.931	22.76
433.182	24.95
433.433	22.41
433.683	25.47
433.934	24.8
434.185	23.58
434.436	22.78
434.687	23.79
434.937	26
435.188	25.62
435.439	25.92
435.69	27.55
435.94	25.89
436.191	26.31
436.442	27.18
436.692	25.73
436.943	23.41
437.194	21.96
437.444	23.72
437.695	29.04
437.945	31.27
438.196	30.38
438.447	28.62
438.697	28.63
438.948	27.62
439.198	25.74
439.449	22.79
439.699	25.79
439.949	26.11
440.2	25.59
440.45	26.81
440.701	25.21
440.951	25.23
441.201	26.3
441.452	24.34
441.702	24.61
441.952	27.61
442.203	28.37
442.453	27.03
442.703	27.09
442.953	28.35
443.204	30.03
443.454	29.07
443.704	31.68
443.954	29.94
444.204	31.25
444.455	34.07
444.705	36.83
444.955	38.24
445.205	37.76
445.455	36.31
445.705	36.3
445.955	37.62
446.205	38.36
446.455	39.56
446.705	42.3
446.955	44.11
447.205	45.71
447.455	48.4
447.705	47.81
447.955	47.9
448.205	47.4
448.454	49.01
448.704	51.44
448.954	51.3
449.204	52.75
449.454	54.08
449.704	52.93
449.953	54.22
450.203	58.09
450.453	58.16
450.703	61.38
450.952	61.18
451.202	63.68
451.452	63.49
451.701	68.34
451.951	71.82
452.201	71.8
452.45	71.59
452.7	73.58
452.949	74.09
453.199	74.59
453.448	77.51
453.698	80.14
453.947	80.55
454.197	81.63
454.446	80.86
454.696	84.18
454.945	85.97
455.195	84.08
455.444	84.94
455.693	89.84
455.943	90.3
456.192	90.34
456.442	91.2
456.691	90.8
456.94	90.33
457.189	89.14
457.439	92.71
457.688	94.89
457.937	92.8
458.186	93.74
458.436	93.45
458.685	94.73
458.934	93.57
459.183	93.64
459.432	93.82
459.681	93.22
459.93	92.15
460.179	92.24
460.429	91.55
460.678	94.86
460.927	99
461.176	97.86
461.425	96.41
461.674	99.07
461.923	99.42
462.172	98.5
462.42	97.96
462.669	99.63
462.918	98.98
463.167	99.34
463.416	96.03
463.665	96.22
463.914	95.79
464.162	92.52
464.411	94.57
464.66	98.14
464.909	96.96
465.158	95.81
465.406	95.35
465.655	98.65
465.904	100.46
466.152	101.46
466.401	101.14
466.65	103.93
466.898	102.2
467.147	98.93
467.395	99.15
467.644	101.17
467.893	100.74
468.141	99.04
468.39	95.84
468.638	92.54
468.887	90.03
469.135	88.67
469.384	88.56
469.632	89.44
469.88	89.01
470.129	89.9
470.377	86.28
470.626	89.24
470.874	91.51
471.122	91.96
471.371	90.41
471.619	90.26
471.867	93.72
472.115	93.34
472.364	91.04
472.612	94.11
472.86	92.3
473.108	91.56
473.356	90.64
473.605	89.65
473.853	85.86
474.101	84.87
474.349	83.09
474.597	86.47
474.845	84.94
475.093	82.77
475.341	80.41
475.589	80.3
475.837	82.32
476.085	83.61
476.333	82.33
476.581	84.71
476.829	85.25
477.077	87.1
477.325	85.62
477.573	88.21
477.821	86.13
478.069	88.54
478.317	87.2
478.564	89.33
478.812	86.82
479.06	85.98
479.308	85.33
479.555	84.17
479.803	82.9
480.051	84.22
480.299	82.86
480.546	84.19
480.794	82.06
481.042	81.61
481.289	80.35
481.537	81.95
481.784	82.46
482.032	85.03
482.28	84.3
482.527	83.92
482.775	83.72
483.022	85.26
483.27	86.5
483.517	89.1
483.765	87.06
484.012	86.6
484.259	84.78
484.507	88
484.754	87.09
485.002	87.09
485.249	86.71
485.496	89.1
485.744	87.18
485.991	86.05
486.238	83.25
486.486	86.52
486.733	88.72
486.98	91.63
487.227	90.68
487.474	92.93
487.722	95.38
487.969	94
488.216	94.24
488.463	95.13
488.71	94.76
488.957	93.81
489.204	93.94
489.451	94.89
489.699	94.35
489.946	91.02
490.193	91.7
490.44	93.92
490.687	95.67
490.934	93.81
491.18	90.51
491.427	93.72
491.674	96.88
491.921	98.99
492.168	98.9
492.415	98.04
492.662	100
492.909	101.84
493.155	101.19
493.402	101.82
493.649	102.75
493.896	104.18
494.142	102.49
494.389	101.6
494.636	100.6
494.883	98.62
495.129	97.52
495.376	96.87
495.623	101.28
495.869	103.5
496.116	105
496.362	106.36
496.609	110.1
496.855	115.67
497.102	115.79
497.348	115.63
497.595	119.04
497.841	123.99
498.088	122.18
498.334	122.07
498.581	122.89
498.827	123.99
499.074	125.15
499.32	127.73
499.566	131.66
499.813	130.9
500.059	128.93
500.305	129.59
500.552	129.43
500.798	129.99
501.044	133.6
501.29	132.85
501.537	130.78
501.783	133.49
502.029	138.57
502.275	138.38
502.521	140.18
502.767	141.15
503.013	144
503.26	140.58
503.506	138.67
503.752	141.97
503.998	141.05
504.244	142.46
504.49	140.65
504.736	142.3
504.982	142.85
505.228	145.13
505.474	145.86
505.72	148.02
505.966	148.32
506.211	151.47
506.457	152.45
506.703	150.84
506.949	149.58
507.195	147.51
507.441	146.17
507.686	150.45
507.932	150.58
508.178	152.15
508.424	151.23
508.669	150.02
508.915	151.84
509.161	154.43
509.406	156.39
509.652	154.58
509.898	157.04
510.143	157.12
510.389	156.38
510.634	152.31
510.88	157.35
511.125	159.58
511.371	158.55
511.616	160.75
511.862	158.96
512.107	157.38
512.353	158.93
512.598	159.17
512.844	157.6
513.089	154.63
513.335	156.96
513.58	155.79
513.825	156.23
514.071	156.07
514.316	155.28
514.561	155.55
514.806	154.54
515.052	156.2
515.297	155.43
515.542	156.81
515.787	158.11
516.033	160.54
516.278	162.25
516.523	162.59
516.768	162.96
517.013	161.65
517.258	163.36
517.503	163.42
517.748	166.14
517.993	167.34
518.238	169.14
518.483	167.11
518.728	167.22
518.973	167.11
519.218	167.13
519.463	167.65
519.708	166.44
519.953	165.43
520.198	166.61
520.443	169.36
520.688	173.86
520.933	172.8
521.177	173.41
521.422	170.91
521.667	174.11
521.912	176.02
522.157	172.99
522.401	177.44
522.646	179.17
522.891	180.84
523.135	181.19
523.38	180.64
523.625	179.46
523.869	181.53
524.114	182.66
524.358	182.56
524.603	182.4
524.848	180.3
525.092	180.38
525.337	181.43
525.581	184.03
525.826	184.46
526.07	186.31
526.315	187.91
526.559	187.97
526.803	186.46
527.048	191
527.292	193.41
527.537	194.1
527.781	194.55
528.025	192.2
528.269	193.78
528.514	194.87
528.758	193.35
529.002	195.05
529.247	197.9
529.491	197.82
529.735	203.81
529.979	202.76
530.223	203.48
530.467	201.04
530.712	199.1
530.956	199.58
531.2	200.79
531.444	198.84
531.688	201.06
531.932	200.51
532.176	203.33
532.42	204.57
532.664	205.18
532.908	204.5
533.152	201.8
533.396	202.62
533.64	201.07
533.884	199.01
534.128	198.15
534.371	200.32
534.615	200.8
534.859	199.05
535.103	198.42
535.347	198.77
535.59	199.78
535.834	195.27
536.078	196.69
536.322	200.15
536.565	204.35
536.809	203.19
537.053	205
537.296	203.93
537.54	204.05
537.784	203.13
538.027	204.88
538.271	205.34
538.514	203.62
538.758	204.87
539.001	203.37
539.245	203.18
539.488	204.34
539.732	204.81
539.975	204.81
540.219	206.54
540.462	206.43
540.706	209.82
540.949	208.71
541.192	209.82
541.436	216.03
541.679	220.79
541.922	222.87
542.166	218.79
542.409	219.97
542.652	221.56
542.895	222.43
543.139	223.71
543.382	229
543.625	227.86
543.868	227.29
544.111	225.77
544.354	223.63
544.598	223.53
544.841	224.16
545.084	223.58
545.327	224.04
545.57	225.74
545.813	228.45
546.056	230.05
546.299	229.54
546.542	233.37
546.785	236.04
547.028	237.23
547.271	236.6
547.514	236.78
547.756	235.03
547.999	235.53
548.242	236.87
548.485	236.02
548.728	237.51
548.971	233.59
549.213	234.36
549.456	233.17
549.699	235.38
549.942	236.92
550.184	236.6
550.427	236.61
550.67	238.04
550.912	232.99
551.155	235.59
551.398	235.61
551.64	235.92
551.883	237.47
552.125	236.49
552.368	236.89
552.61	234.12
552.853	236.23
553.095	236.02
553.338	236.62
553.58	237.12
553.823	237.03
554.065	238.87
554.308	235.08
554.55	233.55
554.792	232
555.035	231.69
555.277	231.35
555.519	232.02
555.762	229.69
556.004	231.7
556.246	229.66
556.488	231.73
556.731	229.56
556.973	231.84
557.215	229.81
557.457	231.16
557.699	232.93
