Data from FLMT021711__11__17-55-07-142.txt Node

Date: Tue Nov 05 17:55:07 CET 2024
User: Etudiants TP
Spectrometer: FLMT02171
Trigger mode: 0
Integration Time (sec): 1.000000E-1
Scans to average: 5
Electric dark correction enabled: true
Nonlinearity correction enabled: false
Boxcar width: 15
XAxis mode: Wavelengths
Number of Pixels in Spectrum: 3648
>>>>>Begin Spectral Data<<<<<
194.658	-66.25
194.923	-63.27
195.188	-55.25
195.453	-55.4
195.717	-50.77
195.982	-48.88
196.247	-46.69
196.512	-48.19
196.777	-47.09
197.042	-45.64
197.307	-45.66
197.572	-41.5
197.837	-40.79
198.101	-38.49
198.366	-36.25
198.631	-33.49
198.896	-25.81
199.161	-18.48
199.425	-11.2
199.69	-1.95
199.955	-3.67
200.22	-7.18
200.484	-7.67
200.749	-8.21
201.014	-6.67
201.278	-5.66
201.543	-5.08
201.807	-4.74
202.072	-3.02
202.337	-1.87
202.601	-3.22
202.866	-4.3
203.13	-2.84
203.395	-6.11
203.659	-5.15
203.924	-5.59
204.189	-4.89
204.453	-3.26
204.717	-1.68
204.982	0.68
205.246	2.8
205.511	5.37
205.775	4.74
206.04	8.87
206.304	9.82
206.568	11.73
206.833	10.62
207.097	11.61
207.361	13.89
207.626	18.28
207.89	19.56
208.154	20.75
208.419	22.86
208.683	23.09
208.947	25.14
209.211	25.27
209.476	25.56
209.74	25.81
210.004	25.82
210.268	26.69
210.532	29.57
210.796	30.14
211.061	30.84
211.325	30.35
211.589	29.61
211.853	30.41
212.117	30.08
212.381	30.3
212.645	29.22
212.909	28.67
213.173	26.39
213.437	25.81
213.701	26.8
213.965	26.34
214.229	22.5
214.493	21.49
214.757	20.09
215.021	20.28
215.285	23.53
215.549	26.14
215.813	23.98
216.077	23.62
216.34	25.33
216.604	23.6
216.868	25.33
217.132	26.51
217.396	24.33
217.659	24.12
217.923	21.43
218.187	20.44
218.451	19.76
218.714	15.37
218.978	15.71
219.242	17.13
219.505	18.18
219.769	20.08
220.033	19.41
220.296	20.89
220.56	21.02
220.824	19.53
221.087	21.36
221.351	20.89
221.614	20.17
221.878	20.27
222.142	20.36
222.405	20.68
222.669	22.77
222.932	20.02
223.196	18.63
223.459	15.33
223.722	15.8
223.986	14.48
224.249	13.34
224.513	12.73
224.776	13.3
225.04	11.91
225.303	10.9
225.566	12.04
225.83	13.6
226.093	16.72
226.356	15.87
226.62	14.21
226.883	15.6
227.146	15.74
227.409	15.01
227.673	13.1
227.936	11.28
228.199	12.54
228.462	9.87
228.725	9.77
228.989	9.76
229.252	10.32
229.515	15.28
229.778	15.21
230.041	14.23
230.304	11.56
230.567	12.47
230.83	10.66
231.093	12.57
231.356	12.22
231.619	18.18
231.882	15.48
232.145	18.07
232.408	17.06
232.671	16.17
232.934	16.22
233.197	14.63
233.46	13.45
233.723	14.25
233.986	12.19
234.249	9.08
234.512	11.28
234.775	14.21
235.037	14.31
235.3	14.38
235.563	14.12
235.826	14.8
236.089	17.95
236.351	16.26
236.614	19.75
236.877	20.92
237.14	22.85
237.402	23.79
237.665	16.84
237.928	16.07
238.19	13.09
238.453	16.8
238.716	15.42
238.978	15.74
239.241	15.14
239.503	17.92
239.766	13.13
240.029	11.45
240.291	14.26
240.554	14.34
240.816	13.6
241.079	13.33
241.341	13.8
241.604	14.06
241.866	11.61
242.129	12.59
242.391	15.09
242.653	13.28
242.916	14.42
243.178	12.61
243.441	12.47
243.703	11.41
243.965	10.47
244.228	10.56
244.49	11.88
244.752	11.74
245.015	11.32
245.277	12.86
245.539	11.4
245.801	13.69
246.064	13.81
246.326	13.11
246.588	11.31
246.85	14.26
247.112	14.5
247.374	16.17
247.637	16.63
247.899	13.88
248.161	15.4
248.423	9.46
248.685	10.29
248.947	10.37
249.209	10
249.471	11.02
249.733	10.87
249.995	9.59
250.257	8.9
250.519	7.17
250.781	10.85
251.043	8.56
251.305	11.58
251.567	13.9
251.829	13.6
252.091	12.88
252.353	8.8
252.615	9.37
252.876	6.96
253.138	4.47
253.4	0.89
253.662	1.59
253.924	3.3
254.185	3.62
254.447	5.05
254.709	5.86
254.971	6.51
255.232	7.71
255.494	5.84
255.756	4.14
256.017	6.46
256.279	6.84
256.541	6.84
256.802	5.97
257.064	7.87
257.326	6.54
257.587	7.84
257.849	9.08
258.11	11.5
258.372	13.08
258.633	14.66
258.895	12.57
259.156	11.39
259.418	9.05
259.679	5.03
259.941	3.52
260.202	6.49
260.464	8.75
260.725	7.4
260.987	7.05
261.248	7.62
261.509	8.71
261.771	7.43
262.032	8.54
262.293	7.59
262.555	7.48
262.816	5.71
263.077	3.02
263.338	0.87
263.6	2.34
263.861	2.66
264.122	2.52
264.383	4.26
264.645	6.13
264.906	5.33
265.167	6.51
265.428	6.63
265.689	6.67
265.95	5.11
266.211	6.93
266.473	5.55
266.734	2.23
266.995	-0.55
267.256	-1.41
267.517	2.53
267.778	6.53
268.039	9.13
268.3	6.33
268.561	4.12
268.822	6.24
269.083	3.53
269.344	2.01
269.604	0.92
269.865	0.34
270.126	-3.47
270.387	-1.73
270.648	-0.41
270.909	0.05
271.17	-0.34
271.43	-3.39
271.691	-6.41
271.952	-8.84
272.213	-7.07
272.473	-10.04
272.734	-8.36
272.995	-5.83
273.256	-6.46
273.516	-3.63
273.777	-6.08
274.038	-4.28
274.298	-7.03
274.559	-7.03
274.82	-1.79
275.08	1.51
275.341	4.55
275.601	2.78
275.862	-0.91
276.122	-1.53
276.383	0.7
276.643	2.81
276.904	1.86
277.164	5.51
277.425	7.29
277.685	12.18
277.946	12.38
278.206	14.15
278.467	16
278.727	14.73
278.987	13.89
279.248	13.17
279.508	15.09
279.768	17.95
280.029	21.09
280.289	17.83
280.549	17.44
280.81	16.35
281.07	14.76
281.33	15.84
281.59	14.41
281.851	17.36
282.111	16.02
282.371	15.83
282.631	16.15
282.891	12.84
283.151	11.42
283.412	8.46
283.672	7.45
283.932	8.64
284.192	10.33
284.452	7.69
284.712	5.51
284.972	4.09
285.232	2.37
285.492	4.56
285.752	2.08
286.012	8.37
286.272	10.08
286.532	7.48
286.792	8.77
287.052	10.16
287.312	10.15
287.571	8.8
287.831	7.76
288.091	4.81
288.351	6.21
288.611	10.08
288.871	10.08
289.13	11.04
289.39	6.24
289.65	6.85
289.91	3.29
290.17	5.48
290.429	8.25
290.689	6.77
290.949	4.98
291.208	6.2
291.468	10.18
291.728	10.97
291.987	12.42
292.247	10.03
292.506	12.95
292.766	16.26
293.026	16.58
293.285	17.66
293.545	19.01
293.804	18.67
294.064	13.95
294.323	11.55
294.583	11.56
294.842	11.71
295.102	12.48
295.361	12.84
295.621	14.69
295.88	15.89
296.139	14.63
296.399	15.25
296.658	10.58
296.917	10.62
297.177	7.72
297.436	9.7
297.695	8.87
297.955	10.69
298.214	9.08
298.473	9.49
298.732	12.52
298.992	14.5
299.251	13.9
299.51	10.56
299.769	12.24
300.028	11.91
300.287	13.3
300.547	12.19
300.806	9.55
301.065	12.02
301.324	13.23
301.583	9.16
301.842	5.61
302.101	4.76
302.36	4.77
302.619	4.16
302.878	4.49
303.137	2.18
303.396	3.52
303.655	4.52
303.914	1.55
304.173	3.54
304.432	2.62
304.691	5.26
304.95	3.96
305.208	7.02
305.467	7.56
305.726	7.03
305.985	8.23
306.244	9.82
306.503	8.92
306.761	6.53
307.02	4.5
307.279	5.02
307.537	5.51
307.796	1.52
308.055	0.02
308.314	1.54
308.572	0.56
308.831	2.23
309.09	1.91
309.348	2.79
309.607	3.37
309.865	6.74
310.124	6.4
310.382	8.37
310.641	9.51
310.9	7.63
311.158	9.54
311.417	9.68
311.675	9.67
311.933	11.09
312.192	11.71
312.45	11.71
312.709	11.99
312.967	10.4
313.226	11.09
313.484	10.15
313.742	9.12
314.001	7.91
314.259	7.32
314.517	8.29
314.776	10.55
315.034	13.2
315.292	11.39
315.55	9.33
315.809	9.49
316.067	9.27
316.325	7.52
316.583	7.86
316.841	6.03
317.1	4.78
317.358	1.06
317.616	0.98
317.874	0.33
318.132	-0.5
318.39	-0.27
318.648	-1.5
318.906	-1.42
319.164	-2.34
319.422	-3.23
319.68	-4.16
319.938	-3.56
320.196	-2.34
320.454	-1.04
320.712	-1.43
320.97	-0.79
321.228	-3.31
321.486	-0.89
321.744	0.42
322.002	1.81
322.26	-0.86
322.517	-0.96
322.775	-3.19
323.033	-4.45
323.291	-3.1
323.549	0.09
323.806	1.17
324.064	1.41
324.322	2.52
324.58	1.89
324.837	3.22
325.095	1.46
325.353	3.75
325.61	4.44
325.868	3.44
326.126	6.12
326.383	4.05
326.641	4.4
326.898	6.6
327.156	5.47
327.413	5.48
327.671	5.36
327.928	7.31
328.186	6.79
328.443	4.86
328.701	8.54
328.958	8.97
329.216	9.77
329.473	6.98
329.731	8.25
329.988	7.59
330.245	10.8
330.503	12.08
330.76	12.04
331.017	14.11
331.275	12.69
331.532	11.35
331.789	10.26
332.047	10.94
332.304	7.82
332.561	8.72
332.818	8.98
333.076	10.43
333.333	11.56
333.59	11.02
333.847	13.9
334.104	11.72
334.361	10.6
334.618	9.4
334.876	6.33
335.133	7.6
335.39	7.35
335.647	8.49
335.904	4.79
336.161	2.45
336.418	2.97
336.675	-1.41
336.932	0.25
337.189	-0.17
337.446	1.76
337.703	0.6
337.96	-2.38
338.216	-2.83
338.473	-5.92
338.73	-5.35
338.987	-6.08
339.244	-2.33
339.501	-4.22
339.757	-3.78
340.014	-2.62
340.271	-1.47
340.528	-0.84
340.785	2.57
341.041	2.81
341.298	-0.51
341.555	-0.07
341.811	-2.39
342.068	-3.19
342.325	-0.82
342.581	1.93
342.838	3.93
343.094	3.44
343.351	2.84
343.608	0.44
343.864	1.56
344.121	3.1
344.377	2.5
344.634	1.77
344.89	1.12
345.147	0.54
345.403	-0.51
345.66	-0.81
345.916	1
346.172	-1.36
346.429	-3.19
346.685	-4.27
346.942	-3.95
347.198	-8.45
347.454	-6.45
347.711	-6.69
347.967	-10
348.223	-8.47
348.48	-10.19
348.736	-6.47
348.992	-8.58
349.248	-4.56
349.504	-4.62
349.761	-4.56
350.017	-3.65
350.273	-4.83
350.529	-6.06
350.785	-6.69
351.041	-6.97
351.297	-5.3
351.554	-5.94
351.81	-7.12
352.066	-8.07
352.322	-6.79
352.578	-5.2
352.834	-6.55
353.09	-6.76
353.346	-7.27
353.602	-9
353.858	-10.32
354.114	-10.45
354.369	-7.65
354.625	-6.04
354.881	-8.66
355.137	-6.25
355.393	-6.24
355.649	-4.95
355.905	-5.42
356.16	-5.28
356.416	-3.75
356.672	-11.19
356.928	-9.22
357.183	-10.57
357.439	-11.15
357.695	-11.42
357.951	-8.25
358.206	-9.01
358.462	-10.12
358.718	-11.51
358.973	-10.97
359.229	-11.88
359.484	-11.08
359.74	-8.91
359.996	-8.09
360.251	-5.57
360.507	-7.24
360.762	-6.11
361.018	-3.32
361.273	-4.89
361.529	-3.52
361.784	-3.07
362.04	-1.27
362.295	-2.51
362.55	-3.43
362.806	-0.13
363.061	0.31
363.316	0.59
363.572	1.66
363.827	4.72
364.082	1.77
364.338	1.31
364.593	1.62
364.848	1.99
365.104	0.77
365.359	3.66
365.614	3.31
365.869	0.62
366.124	1.71
366.38	1.64
366.635	3.54
366.89	4.3
367.145	4.15
367.4	6.72
367.655	7.56
367.91	7.84
368.165	5.95
368.42	3.61
368.675	4.86
368.93	4.49
369.185	2.83
369.44	4.01
369.695	6.57
369.95	4.47
370.205	4
370.46	3.97
370.715	3.78
370.97	4.9
371.225	4.76
371.48	5.78
371.734	5.64
371.989	6.76
372.244	7.08
372.499	9.22
372.754	7.96
373.008	6.07
373.263	1.85
373.518	3.71
373.773	2.58
374.027	0.53
374.282	2.79
374.537	2.88
374.791	4.26
375.046	3.7
375.301	2.44
375.555	0.17
375.81	0.53
376.064	1.02
376.319	4.35
376.573	0.87
376.828	-1.2
377.082	3.36
377.337	-0.05
377.591	-3
377.846	-0.35
378.1	1.74
378.355	2.89
378.609	2.48
378.863	-0.9
379.118	-0.27
379.372	-1.8
379.627	-3.07
379.881	-4.68
380.135	-5.58
380.389	-6
380.644	-5.8
380.898	-5.38
381.152	-3.58
381.407	-3.85
381.661	-1.56
381.915	0.16
382.169	0.38
382.423	-0.23
382.677	-3.51
382.932	-2.1
383.186	-0.58
383.44	0.61
383.694	2.44
383.948	0.19
384.202	-0.07
384.456	3.95
384.71	4.68
384.964	3.62
385.218	6.45
385.472	7.84
385.726	6.42
385.98	7.79
386.234	7.23
386.488	3.6
386.742	5.65
386.996	2.69
387.249	4.1
387.503	5.2
387.757	7.33
388.011	7.71
388.265	6.83
388.518	7.77
388.772	9.24
389.026	10.7
389.28	8.58
389.533	6.74
389.787	9.8
390.041	8.36
390.295	8.79
390.548	9.21
390.802	12.45
391.055	11.44
391.309	11.56
391.563	9.67
391.816	10.75
392.07	9.27
392.323	9.04
392.577	11.01
392.83	12.11
393.084	17.08
393.337	19.32
393.591	19.88
393.844	19.32
394.098	23.14
394.351	27.86
394.604	28.62
394.858	32.24
395.111	31.78
395.364	29.82
395.618	32.13
395.871	30.69
396.124	30.93
396.378	31.47
396.631	31.61
396.884	28.46
397.137	28.53
397.391	30.22
397.644	26.59
397.897	26.47
398.15	27.82
398.403	31.46
398.657	27.75
398.91	25.94
399.163	25.68
399.416	25.95
399.669	25.01
399.922	23.71
400.175	22.26
400.428	20.49
400.681	19.46
400.934	15.77
401.187	13.76
401.44	13.73
401.693	12.74
401.946	8.91
402.199	3.92
402.452	1.74
402.704	-2.38
402.957	-3.57
403.21	-2.9
403.463	-4.98
403.716	-4.42
403.969	-4.79
404.221	-5.99
404.474	-4.3
404.727	-0.53
404.98	1.62
405.232	1.35
405.485	2.6
405.738	4.46
405.99	3.37
406.243	3.53
406.496	6.49
406.748	8.09
407.001	6.36
407.253	7.08
407.506	7.22
407.759	8.61
408.011	7.35
408.264	6.94
408.516	7.89
408.769	4.91
409.021	6.99
409.274	6.89
409.526	6.98
409.778	6.59
410.031	10.18
410.283	10.38
410.536	15.41
410.788	12.67
411.04	12.79
411.293	14.13
411.545	16.56
411.797	16.83
412.049	16.27
412.302	17.25
412.554	16.92
412.806	16.24
413.058	15.03
413.311	15.53
413.563	13.69
413.815	13.85
414.067	11.12
414.319	9.3
414.571	9.37
414.823	8.58
415.075	7.34
415.328	7.23
415.58	10.24
415.832	10.19
416.084	11.07
416.336	10.23
416.588	14.81
416.84	12.14
417.091	16.02
417.343	13.5
417.595	15.37
417.847	15.76
418.099	17.92
418.351	18.69
418.603	21.63
418.855	23.93
419.106	23.42
419.358	23.43
419.61	23.58
419.862	23.96
420.114	21.83
420.365	21.4
420.617	20.19
420.869	20.22
421.12	19.91
421.372	21.68
421.624	20.79
421.875	20.44
422.127	17.9
422.379	18.37
422.63	21.09
422.882	19.41
423.133	20.61
423.385	20.87
423.636	22.28
423.888	24.06
424.139	25.9
424.391	22.66
424.642	22.11
424.894	19.56
425.145	19.36
425.396	15.63
425.648	18.07
425.899	15.72
426.151	13.63
426.402	13.88
426.653	12.62
426.905	12.66
427.156	10.46
427.407	10.12
427.658	10.23
427.91	7.74
428.161	8.02
428.412	10.86
428.663	10.45
428.914	11.44
429.166	11.8
429.417	12.3
429.668	10.11
429.919	8.3
430.17	6.77
430.421	6.02
430.672	9.07
430.923	9.12
431.174	7.28
431.425	7.61
431.676	6.07
431.927	3.03
432.178	4.55
432.429	5.52
432.68	4.64
432.931	8.54
433.182	12.68
433.433	9.63
433.683	11.81
433.934	10.95
434.185	9.66
434.436	8.69
434.687	8.27
434.937	10.35
435.188	8.63
435.439	8.63
435.69	10.41
435.94	7.85
436.191	7.37
436.442	8.27
436.692	6.27
436.943	3.63
437.194	3
437.444	6.79
437.695	10.67
437.945	10.83
438.196	10.38
438.447	9.6
438.697	9.42
438.948	8.77
439.198	5.28
439.449	2.11
439.699	3.95
439.949	4.46
440.2	3.13
440.45	4.42
440.701	2.07
440.951	1.74
441.201	2.32
441.452	0.1
441.702	0.78
441.952	0.89
442.203	2.21
442.453	0.76
442.703	-0.23
442.953	1.42
443.204	2.17
443.454	0.4
443.704	2.06
443.954	0.04
444.204	-1.41
444.455	0.91
444.705	2.69
444.955	1.78
445.205	1.13
445.455	-0.4
445.705	0.68
445.955	-0.27
446.205	-1.08
446.455	-1.08
446.705	-0.7
446.955	0.9
447.205	3
447.455	3.14
447.705	0.51
447.955	-1.16
448.205	-1.17
448.454	-1.2
448.704	-1.64
448.954	-2.79
449.204	-1
449.454	-2.11
449.704	-3.35
449.953	-4.7
450.203	-1.36
450.453	-3.13
450.703	-1.55
450.952	-2.75
451.202	-1.13
451.452	-2.02
451.701	2.21
451.951	6.48
452.201	5.43
452.45	3.9
452.7	6.33
452.949	5.88
453.199	5.03
453.448	7.27
453.698	9.42
453.947	8.27
454.197	7.36
454.446	6.46
454.696	8.82
454.945	7.79
455.195	6.7
455.444	6.46
455.693	11.33
455.943	9.37
456.192	9.7
456.442	9.94
456.691	9.55
456.94	8.9
457.189	8.38
457.439	10.6
457.688	14.21
457.937	12.32
458.186	13.77
458.436	13.12
458.685	14.39
458.934	13.31
459.183	13.65
459.432	14.03
459.681	13.42
459.93	12.4
460.179	13.77
460.429	11.54
460.678	14.04
460.927	17.41
461.176	15.62
461.425	14.48
461.674	18.25
461.923	18.34
462.172	17.44
462.42	16.21
462.669	18.94
462.918	19.47
463.167	20.1
463.416	17.24
463.665	18.6
463.914	19.73
464.162	16.69
464.411	18.69
464.66	19.58
464.909	19.96
465.158	20.1
465.406	18.22
465.655	20.49
465.904	22.04
466.152	22.86
466.401	23.55
466.65	25.81
466.898	24.22
467.147	19.89
467.395	20.45
467.644	21.54
467.893	20.63
468.141	21.51
468.39	18.32
468.638	14.82
468.887	13.42
469.135	13.54
469.384	12.86
469.632	13.02
469.88	13.3
470.129	14.51
470.377	11.59
470.626	14.56
470.874	16.61
471.122	18.25
471.371	17.03
471.619	15.68
471.867	19.9
472.115	19.97
472.364	17.78
472.612	19.57
472.86	18.36
473.108	18.63
473.356	18.39
473.605	18.38
473.853	14.79
474.101	13.82
474.349	12.11
474.597	14.3
474.845	13.27
475.093	10.28
475.341	8.88
475.589	8.51
475.837	9.21
476.085	13.02
476.333	12.39
476.581	12.92
476.829	12.62
477.077	15.05
477.325	15.88
477.573	18.94
477.821	17.33
478.069	18.5
478.317	16.45
478.564	19.51
478.812	17.26
479.06	16.36
479.308	15.54
479.555	16.15
479.803	13.85
480.051	16.28
480.299	16.3
480.546	16.81
480.794	14.54
481.042	14.56
481.289	12.91
481.537	14.07
481.784	12.84
482.032	15.72
482.28	15.4
482.527	15.03
482.775	16.04
483.022	17.6
483.27	19.71
483.517	23.04
483.765	20.57
484.012	20.96
484.259	19.04
484.507	20.86
484.754	20.76
485.002	19.84
485.249	17.1
485.496	21.03
485.744	19.63
485.991	18.69
486.238	16.04
486.486	19.37
486.733	21.12
486.98	23.88
487.227	21.7
487.474	23
487.722	24.99
487.969	22.65
488.216	21.9
488.463	22.77
488.71	19.15
488.957	18.45
489.204	19.46
489.451	19.58
489.699	18.51
489.946	15.45
490.193	16.27
490.44	16.73
490.687	16.65
490.934	14.77
491.18	10.35
491.427	12.15
491.674	15.08
491.921	16.5
492.168	16.46
492.415	12.23
492.662	13.76
492.909	16.22
493.155	14.86
493.402	14.57
493.649	14.2
493.896	14.19
494.142	10.1
494.389	9.26
494.636	7.23
494.883	4.55
495.129	3.79
495.376	0.68
495.623	1.98
495.869	4.42
496.116	5.02
496.362	8.48
496.609	11.54
496.855	16.52
497.102	17.64
497.348	17.38
497.595	19.24
497.841	23.46
498.088	20.62
498.334	20.22
498.581	18.45
498.827	19.07
499.074	18.16
499.32	18.01
499.566	21.51
499.813	20.32
500.059	19.31
500.305	18.72
500.552	17.78
500.798	16.44
501.044	19.92
501.29	18.33
501.537	15.59
501.783	18.9
502.029	21.05
502.275	19.3
502.521	18.97
502.767	20.05
503.013	23.04
503.26	21.89
503.506	18.18
503.752	19.98
503.998	16.84
504.244	16.98
504.49	12.6
504.736	13.25
504.982	12.43
505.228	13.52
505.474	12.79
505.72	14.34
505.966	13.21
506.211	16.54
506.457	16.31
506.703	13.33
506.949	11.62
507.195	9.52
507.441	7.18
507.686	9.55
507.932	9.84
508.178	10.85
508.424	9.38
508.669	7.46
508.915	7.52
509.161	10.46
509.406	9.89
509.652	8.69
509.898	11.29
510.143	12.76
510.389	11.29
510.634	6.86
510.88	9.59
511.125	12.27
511.371	12.97
511.616	15.21
511.862	11.29
512.107	9.03
512.353	8.74
512.598	8.57
512.844	7.02
513.089	5.05
513.335	7.46
513.58	8.08
513.825	8.06
514.071	7.31
514.316	8.28
514.561	9.37
514.806	8.48
515.052	10.73
515.297	10.08
515.542	11.33
515.787	11.49
516.033	12.39
516.278	12.51
516.523	12.18
516.768	11.15
517.013	9.72
517.258	10.28
517.503	10.8
517.748	11.4
517.993	11.02
518.238	12.79
518.483	10.95
518.728	9.77
518.973	6.01
519.218	4.95
519.463	7.1
519.708	6.47
519.953	5.69
520.198	6.67
520.443	9.94
520.688	11.59
520.933	10.27
521.177	9.08
521.422	6.47
521.667	9.12
521.912	8.31
522.157	5.12
522.401	6.8
522.646	8.1
522.891	9.83
523.135	8.56
523.38	9.54
523.625	8.3
523.869	10.18
524.114	11.45
524.358	10.43
524.603	10.59
524.848	8.69
525.092	7
525.337	8.7
525.581	11.27
525.826	12.43
526.07	13.76
526.315	15.68
526.559	15.63
526.803	14.63
527.048	17.51
527.292	19.19
527.537	19.45
527.781	18.61
528.025	14.74
528.269	15.61
528.514	14.14
528.758	13.29
529.002	13.99
529.247	16.57
529.491	16.66
529.735	21.11
529.979	21.4
530.223	22.11
530.467	18.09
530.712	17.41
530.956	15.07
531.2	18.1
531.444	16.71
531.688	19.03
531.932	18.9
532.176	19.38
532.42	19.53
532.664	21.09
532.908	18.12
533.152	16.57
533.396	15.87
533.64	13.2
533.884	9.92
534.128	9.89
534.371	12.34
534.615	13.63
534.859	12.85
535.103	13.34
535.347	13.27
535.59	15.6
535.834	12.64
536.078	14.6
536.322	16.54
536.565	19.63
536.809	16.77
537.053	19.16
537.296	18.41
537.54	17.58
537.784	15.75
538.027	17.79
538.271	16.73
538.514	16.84
538.758	15.92
539.001	14.2
539.245	13.71
539.488	14.24
539.732	17.1
539.975	18.73
540.219	19.93
540.462	21.65
540.706	22.47
540.949	22.12
541.192	23.12
541.436	28.94
541.679	34.22
541.922	34.55
542.166	28.52
542.409	28.37
542.652	27.72
542.895	29.51
543.139	29.57
543.382	33.31
543.625	33.88
543.868	34.79
544.111	31.68
544.354	31.25
544.598	30.04
544.841	29.89
545.084	29.47
545.327	28.76
545.57	30.35
545.813	32.33
546.056	31.22
546.299	30.65
546.542	33.67
546.785	35.14
547.028	36.36
547.271	35.3
547.514	34.09
547.756	32.1
547.999	31.2
548.242	32.87
548.485	31.41
548.728	33.58
548.971	28.79
549.213	28.43
549.456	26.9
549.699	28.52
549.942	28.83
550.184	28.85
550.427	27.59
550.67	27.46
550.912	22.55
551.155	23.88
551.398	23.26
551.64	24.28
551.883	25
552.125	23.87
552.368	23.34
552.61	20.23
552.853	22.77
553.095	20.99
553.338	21.88
553.58	23.17
553.823	22.21
554.065	22.78
554.308	18.82
554.55	15.92
554.792	13.8
555.035	12.87
555.277	11.1
555.519	12.38
555.762	10.04
556.004	10.6
556.246	5.44
556.488	7.15
556.731	3.11
556.973	3.97
557.215	3.83
557.457	5.41
557.699	7.23
557.941	6.02
558.183	6.12
558.426	8.69
558.668	4.3
558.91	6.23
559.152	7.46
559.394	7.15
559.636	9.77
559.878	10.79
560.12	11.31
560.362	12.58
560.604	12.99
560.845	10.61
561.087	9.7
561.329	11.88
561.571	10.67
561.813	12.01
562.055	12.19
562.297	12.96
562.538	14.74
562.78	18.45
563.022	16.13
563.264	16.66
563.505	16.55
563.747	17.75
563.989	15.41
564.23	16.04
564.472	14.21
