Data from FLMT021711__6__17-54-10-264.txt Node

Date: Tue Nov 05 17:54:10 CET 2024
User: Etudiants TP
Spectrometer: FLMT02171
Trigger mode: 0
Integration Time (sec): 1.000000E-1
Scans to average: 5
Electric dark correction enabled: true
Nonlinearity correction enabled: false
Boxcar width: 15
XAxis mode: Wavelengths
Number of Pixels in Spectrum: 3648
>>>>>Begin Spectral Data<<<<<
194.658	-61.34
194.923	-59.93
195.188	-53.01
195.453	-52.91
195.717	-47.59
195.982	-46.17
196.247	-44.94
196.512	-46.69
196.777	-44.43
197.042	-42.74
197.307	-42.7
197.572	-38.2
197.837	-38.03
198.101	-35.47
198.366	-32.2
198.631	-29.67
198.896	-24.67
199.161	-18.45
199.425	-11.42
199.69	-1.69
199.955	-3
200.22	-6.48
200.484	-7.85
200.749	-8.09
201.014	-8.38
201.278	-9.56
201.543	-9.82
201.807	-10.49
202.072	-9.64
202.337	-10.85
202.601	-8.62
202.866	-10.95
203.13	-9.56
203.395	-11.45
203.659	-10.67
203.924	-12.34
204.189	-11.77
204.453	-11.12
204.717	-9.96
204.982	-9.2
205.246	-8.02
205.511	-5.76
205.775	-6.57
206.04	-1.75
206.304	-0.75
206.568	-0.15
206.833	-1.37
207.097	1.83
207.361	4.03
207.626	7.39
207.89	7.67
208.154	8.6
208.419	11.81
208.683	11.8
208.947	14.24
209.211	15.04
209.476	15.75
209.74	16.1
210.004	16.53
210.268	17.59
210.532	21.5
210.796	20.07
211.061	21.62
211.325	22.08
211.589	20.47
211.853	20.87
212.117	20.61
212.381	20.92
212.645	21.42
212.909	21.87
213.173	19.03
213.437	18.93
213.701	18.36
213.965	18.68
214.229	13.64
214.493	12.87
214.757	11.56
215.021	12.17
215.285	15.07
215.549	17.1
215.813	14.31
216.077	13.58
216.34	15.61
216.604	13.83
216.868	15.28
217.132	15.53
217.396	15
217.659	15.24
217.923	11.57
218.187	11.8
218.451	10.13
218.714	8.58
218.978	8.87
219.242	10.4
219.505	10.96
219.769	12.47
220.033	13.15
220.296	15.61
220.56	16.77
220.824	14.04
221.087	14.58
221.351	15.09
221.614	15.07
221.878	16.64
222.142	13.78
222.405	14.82
222.669	15.77
222.932	11.45
223.196	8.81
223.459	4.49
223.722	4.06
223.986	2.81
224.249	2.25
224.513	1.38
224.776	0.84
225.04	-0.69
225.303	-0.54
225.566	0.19
225.83	1.97
226.093	5.63
226.356	4.42
226.62	3.46
226.883	4.66
227.146	4.65
227.409	3.53
227.673	1.68
227.936	0.55
228.199	0.35
228.462	-3.37
228.725	-5.49
228.989	-4.71
229.252	-3.33
229.515	1.36
229.778	-0.57
230.041	-1.64
230.304	-2.04
230.567	-1.62
230.83	-3.2
231.093	0.3
231.356	0.63
231.619	7.22
231.882	7.03
232.145	10.42
232.408	9.4
232.671	9.76
232.934	10.69
233.197	7.73
233.46	6.2
233.723	6.91
233.986	5.23
234.249	2.35
234.512	4.17
234.775	7.67
235.037	6.01
235.3	6.43
235.563	6.89
235.826	8.15
236.089	10.1
236.351	9.53
236.614	12.21
236.877	13.98
237.14	16.07
237.402	15.48
237.665	8.93
237.928	10.32
238.19	7.33
238.453	10.6
238.716	9.97
238.978	10.42
239.241	8.44
239.503	10.6
239.766	6.83
240.029	4.79
240.291	5.87
240.554	4.97
240.816	2.99
241.079	3.35
241.341	4.41
241.604	3.53
241.866	1.72
242.129	2.4
242.391	4.66
242.653	2.69
242.916	2.48
243.178	2.42
243.441	3.44
243.703	2.79
243.965	-0.33
244.228	0.08
244.49	0.72
244.752	1.79
245.015	1.29
245.277	3.88
245.539	2.69
245.801	4.8
246.064	2.54
246.326	3.01
246.588	2.67
246.85	4.68
247.112	4.64
247.374	7.68
247.637	9.7
247.899	8
248.161	8.59
248.423	4.31
248.685	5.41
248.947	5.96
249.209	5.17
249.471	7.03
249.733	8.39
249.995	5.41
250.257	4.68
250.519	4.21
250.781	7.1
251.043	4.66
251.305	6.44
251.567	8.13
251.829	8.52
252.091	9.83
252.353	5.87
252.615	4.43
252.876	2.61
253.138	0.81
253.4	-4.46
253.662	-3.37
253.924	0.03
254.185	1.71
254.447	2.9
254.709	2.14
254.971	3.29
255.232	4.64
255.494	2.17
255.756	-0.36
256.017	0.23
256.279	0.42
256.541	1.5
256.802	2.16
257.064	3.53
257.326	2.31
257.587	2.9
257.849	2.91
258.11	6.48
258.372	7.15
258.633	7.98
258.895	7.96
259.156	6.32
259.418	4.95
259.679	0.27
259.941	-1.2
260.202	1.5
260.464	4.15
260.725	4.06
260.987	2.95
261.248	3.21
261.509	4.55
261.771	3.36
262.032	2.9
262.293	2.62
262.555	2.15
262.816	-0.36
263.077	-2.74
263.338	-5.25
263.6	-4.82
263.861	-5.12
264.122	-6.35
264.383	-3.95
264.645	-3.92
264.906	-5.02
265.167	-3.8
265.428	-3.23
265.689	-2.74
265.95	-4.37
266.211	-2.31
266.473	-2.22
266.734	-6.1
266.995	-10.89
267.256	-9.21
267.517	-7.23
267.778	-3.7
268.039	-2.84
268.3	-4.73
268.561	-7.39
268.822	-4.81
269.083	-6.28
269.344	-7.43
269.604	-7.82
269.865	-6.9
270.126	-10.3
270.387	-9.86
270.648	-8.89
270.909	-8.65
271.17	-9.73
271.43	-11.67
271.691	-12.84
271.952	-13.1
272.213	-9.92
272.473	-12.67
272.734	-10.83
272.995	-9.4
273.256	-10.06
273.516	-7.63
273.777	-10.89
274.038	-9.12
274.298	-13.27
274.559	-13.93
274.82	-8.94
275.08	-5.22
275.341	-3.56
275.601	-4.28
275.862	-5.25
276.122	-4.38
276.383	-4.4
276.643	-2.07
276.904	-3.01
277.164	0.04
277.425	0.5
277.685	3.83
277.946	2.91
278.206	4.46
278.467	6.4
278.727	5.83
278.987	5.59
279.248	5.09
279.508	6.18
279.768	8.35
280.029	9.21
280.289	5.48
280.549	4.69
280.81	4.26
281.07	3.77
281.33	4.94
281.59	2.24
281.851	6.12
282.111	5.54
282.371	5.84
282.631	7.06
282.891	5.75
283.151	3.53
283.412	1.56
283.672	0.25
283.932	0.64
284.192	1.45
284.452	-0.13
284.712	-2.66
284.972	-3.93
285.232	-6.16
285.492	-3.75
285.752	-5.58
286.012	1.44
286.272	2.76
286.532	0.61
286.792	-0
287.052	1.75
287.312	2.76
287.571	2.27
287.831	2.96
288.091	-0.1
288.351	0.88
288.611	4.85
288.871	4.69
289.13	4.42
289.39	1.23
289.65	3.03
289.91	0.03
290.17	2.1
290.429	4.49
290.689	1.06
290.949	-1.16
291.208	0.67
291.468	3.63
291.728	5.32
291.987	5.36
292.247	3.26
292.506	6.61
292.766	9.64
293.026	9.22
293.285	10.84
293.545	13.19
293.804	13.44
294.064	9.03
294.323	6.92
294.583	7.61
294.842	9.39
295.102	10.08
295.361	10.25
295.621	10.37
295.88	9.82
296.139	9.41
296.399	8.53
296.658	3.68
296.917	3.13
297.177	0.41
297.436	2.52
297.695	0.23
297.955	2.06
298.214	1.03
298.473	3.29
298.732	6.2
298.992	8.27
299.251	7.66
299.51	4.05
299.769	4.2
300.028	4.88
300.287	6.29
300.547	5.78
300.806	3.19
301.065	5.77
301.324	7.33
301.583	2.67
301.842	-0.96
302.101	-2.83
302.36	-1.79
302.619	-2.44
302.878	-2.89
303.137	-6.01
303.396	-5.16
303.655	-2.84
303.914	-5.74
304.173	-4.55
304.432	-3.75
304.691	-0.24
304.95	-2.41
305.208	2.11
305.467	1.19
305.726	1.5
305.985	2.57
306.244	3.52
306.503	1.22
306.761	-0.44
307.02	-3.76
307.279	-2.86
307.537	-1.36
307.796	-4.33
308.055	-7.5
308.314	-5.82
308.572	-7.6
308.831	-5.54
309.09	-5.42
309.348	-4.95
309.607	-4.67
309.865	-0.26
310.124	0.08
310.382	0.67
310.641	1.11
310.9	-1.62
311.158	-0.15
311.417	-1.05
311.675	-0.33
311.933	0.42
312.192	2.94
312.45	2.86
312.709	1.92
312.967	1.61
313.226	0.52
313.484	0.52
313.742	-0.94
314.001	-3.63
314.259	-5.45
314.517	-4.89
314.776	-2.67
315.034	0.5
315.292	-2.04
315.55	-4.45
315.809	-5.65
316.067	-3.86
316.325	-6.36
316.583	-5.42
316.841	-6.94
317.1	-9.08
317.358	-11.8
317.616	-12.71
317.874	-14.51
318.132	-14.9
318.39	-14.98
318.648	-15.72
318.906	-14.66
319.164	-14.95
319.422	-14.6
319.68	-16.95
319.938	-15.56
320.196	-16.93
320.454	-16.61
320.712	-16.83
320.97	-15.49
321.228	-16.57
321.486	-13.87
321.744	-11.16
322.002	-9.28
322.26	-11.33
322.517	-10.24
322.775	-12.55
323.033	-13.91
323.291	-10.76
323.549	-8.52
323.806	-5.26
324.064	-5.54
324.322	-4.07
324.58	-5.39
324.837	-2.94
325.095	-4.32
325.353	-3.9
325.61	-0.35
325.868	-1.75
326.126	-0.92
326.383	-2.57
326.641	-3.37
326.898	-1.14
327.156	0.09
327.413	0.41
327.671	1.05
327.928	3.51
328.186	4.03
328.443	3.51
328.701	6.87
328.958	6.93
329.216	8.07
329.473	5.94
329.731	6.06
329.988	6.88
330.245	10.39
330.503	10.74
330.76	10.62
331.017	12.29
331.275	9.34
331.532	7.78
331.789	4.54
332.047	3.59
332.304	0.02
332.561	1.73
332.818	-0.02
333.076	2.02
333.333	3.38
333.59	2.09
333.847	4.76
334.104	4.89
334.361	6.36
334.618	6.63
334.876	5.11
335.133	3.99
335.39	2.01
335.647	2.99
335.904	-2.65
336.161	-4.78
336.418	-3.42
336.675	-7.25
336.932	-4.62
337.189	-5.59
337.446	-6.22
337.703	-7.88
337.96	-11.35
338.216	-11.64
338.473	-14.78
338.73	-12.88
338.987	-12.16
339.244	-9.21
339.501	-8.7
339.757	-6.86
340.014	-5.27
340.271	-3.46
340.528	-3.84
340.785	-0.18
341.041	-0.67
341.298	-3.72
341.555	-3.87
341.811	-4.83
342.068	-7.1
342.325	-7.6
342.581	-6.1
342.838	-5.69
343.094	-4.98
343.351	-4.15
343.608	-6.9
343.864	-3.17
344.121	-1.53
344.377	-3.01
344.634	-4.04
344.89	-6.33
345.147	-6.72
345.403	-7.49
345.66	-7.95
345.916	-5.73
346.172	-8.55
346.429	-9.49
346.685	-12.42
346.942	-12.19
347.198	-15.87
347.454	-15.42
347.711	-15.42
347.967	-17.75
348.223	-17.3
348.48	-18.66
348.736	-15.26
348.992	-14.49
349.248	-11.36
349.504	-10.72
349.761	-10.81
350.017	-10.38
350.273	-11.52
350.529	-12.77
350.785	-13.59
351.041	-15.09
351.297	-14.18
351.554	-15.08
351.81	-16.24
352.066	-17.84
352.322	-17.39
352.578	-16.7
352.834	-17.64
353.09	-17.47
353.346	-16.87
353.602	-16.78
353.858	-17.1
354.114	-16.19
354.369	-13.75
354.625	-10.63
354.881	-11.65
355.137	-9.4
355.393	-9.24
355.649	-9.66
355.905	-8.49
356.16	-8.5
356.416	-7.07
356.672	-14.49
356.928	-14.72
357.183	-15.31
357.439	-16.11
357.695	-17.82
357.951	-14.27
358.206	-14.19
358.462	-13.02
358.718	-13.62
358.973	-12.36
359.229	-12.41
359.484	-10.73
359.74	-8.57
359.996	-6.57
360.251	-3.23
360.507	-3.35
360.762	-2.75
361.018	-0.26
361.273	-2.93
361.529	-1.29
361.784	-3.63
362.04	-2.54
362.295	-3.87
362.55	-4.33
362.806	-3.43
363.061	-3.51
363.316	-3.02
363.572	-1.35
363.827	0.06
364.082	-2.48
364.338	-3.55
364.593	-2.5
364.848	-2.66
365.104	-4.38
365.359	-1.34
365.614	-0.13
365.869	-2.22
366.124	-1.81
366.38	-4.06
366.635	-2.39
366.89	-1.06
367.145	-1.11
367.4	2.54
367.655	2.51
367.91	1.14
368.165	-1.87
368.42	-4.28
368.675	-2.55
368.93	-2.21
369.185	-3.34
369.44	-4.39
369.695	-1.17
369.95	-1.86
370.205	-2.5
370.46	-3.25
370.715	-3.96
370.97	-1
371.225	-0.74
371.48	0.47
371.734	-0.15
371.989	1.19
372.244	1.65
372.499	3.04
372.754	2.38
373.008	0.98
373.263	-4.49
373.518	-3.03
373.773	-5.04
374.027	-5.65
374.282	-2.21
374.537	-1.42
374.791	-1.45
375.046	-3.4
375.301	-5.49
375.555	-8.26
375.81	-6.07
376.064	-5.01
376.319	-1.01
376.573	-3.28
376.828	-8.05
377.082	-3.14
377.337	-4.82
377.591	-6.87
377.846	-6.19
378.1	-2.77
378.355	-2.6
378.609	-2.99
378.863	-7.68
379.118	-7.16
379.372	-8.97
379.627	-10.33
379.881	-11.16
380.135	-11.01
380.389	-10.5
380.644	-9.91
380.898	-8.63
381.152	-6.6
381.407	-6.57
381.661	-3.63
381.915	-3.24
382.169	-3.97
382.423	-5.04
382.677	-7.41
382.932	-5.81
383.186	-4.88
383.44	-3.41
383.694	-2.78
383.948	-4.44
384.202	-6.47
384.456	-3.59
384.71	-1.29
384.964	-4.26
385.218	-1.37
385.472	-0.45
385.726	-0.67
385.98	-1.4
386.234	-1.82
386.488	-4.67
386.742	-1.97
386.996	-3.26
387.249	-2.98
387.503	-0.68
387.757	0.26
388.011	1.35
388.265	0.79
388.518	2.77
388.772	4.76
389.026	5.78
389.28	3.23
389.533	1.49
389.787	4.12
390.041	1.67
390.295	1.55
390.548	1.71
390.802	3.97
391.055	1.75
391.309	0.43
391.563	-1.34
391.816	-0.25
392.07	-1.23
392.323	-0.78
392.577	0.34
392.83	3.38
393.084	8.09
393.337	11.61
393.591	12.86
393.844	13
394.098	17
394.351	21.67
394.604	22.08
394.858	22.4
395.111	22.33
395.364	19.84
395.618	21.73
395.871	18.74
396.124	17.31
396.378	15.43
396.631	13.77
396.884	10.84
397.137	11.36
397.391	13.19
397.644	10.54
397.897	11.13
398.15	12.84
398.403	16.64
398.657	15.28
398.91	15.44
399.163	17.3
399.416	17.57
399.669	16
399.922	15.58
400.175	13.8
400.428	11.92
400.681	12.17
400.934	7.25
401.187	5.52
401.44	4.58
401.693	2.3
401.946	-1.65
402.199	-6.4
402.452	-7.5
402.704	-8.57
402.957	-8.67
403.21	-7.05
403.463	-8.48
403.716	-7.06
403.969	-5.05
404.221	-6.61
404.474	-4.38
404.727	-1.64
404.98	-0.24
405.232	-1.11
405.485	0.42
405.738	2.69
405.99	2.34
406.243	2.49
406.496	5.07
406.748	4.22
407.001	3.14
407.253	4.08
407.506	4.9
407.759	6.13
408.011	4.38
408.264	5.84
408.516	4.69
408.769	2.11
409.021	3.25
409.274	3.74
409.526	7.1
409.778	6.74
410.031	9.41
410.283	9.12
410.536	13.8
410.788	12.92
411.04	12.21
411.293	13.87
411.545	15.82
411.797	14.5
412.049	16.19
412.302	17
412.554	18.48
412.806	16.74
413.058	15.62
413.311	15.38
413.563	13.18
413.815	12.58
414.067	9.68
414.319	7.52
414.571	8.96
414.823	7.39
415.075	4.82
415.328	5.43
415.58	8.98
415.832	9.47
416.084	10.24
416.336	9.02
416.588	13.98
416.84	10.08
417.091	13
417.343	9.07
417.595	11.36
417.847	11.81
418.099	11.99
418.351	10.86
418.603	11.69
418.855	12.25
419.106	12.22
419.358	10.73
419.61	10.82
419.862	11.62
420.114	9.63
420.365	8.53
420.617	9.28
420.869	8.04
421.12	7.78
421.372	10.18
421.624	10.05
421.875	10.48
422.127	7.26
422.379	7.89
422.63	9.9
422.882	9.4
423.133	8.15
423.385	7.42
423.636	9.27
423.888	10.44
424.139	12.72
424.391	9.96
424.642	8.9
424.894	5.68
425.145	5.38
425.396	3.3
425.648	6.13
425.899	5.94
426.151	5.38
426.402	5.62
426.653	6.53
426.905	5.53
427.156	4.16
427.407	4.4
427.658	3.13
427.91	1.02
428.161	2.04
428.412	4.57
428.663	6.81
428.914	7.76
429.166	9.63
429.417	10.23
429.668	9.6
429.919	8.85
430.17	8.77
430.421	9.24
430.672	12.43
430.923	13.37
431.174	12.25
431.425	12.83
431.676	12.59
431.927	9.68
432.178	10.96
432.429	11.97
432.68	12.24
432.931	15.87
433.182	18
433.433	14.74
433.683	16.31
433.934	15.16
434.185	15.35
434.436	15.08
434.687	15.66
434.937	18.81
435.188	16.34
435.439	15.88
435.69	19.73
435.94	18.34
436.191	18.58
436.442	17.85
436.692	17.05
436.943	14.3
437.194	12.06
437.444	14.59
437.695	18.42
437.945	19.62
438.196	18.05
438.447	17.8
438.697	18.1
438.948	17.17
439.198	13.4
439.449	9.53
439.699	9.83
439.949	10.66
440.2	10.03
440.45	12
440.701	10.79
440.951	10.89
441.201	11.61
441.452	9.25
441.702	8.41
441.952	9.08
442.203	9.63
442.453	8.2
442.703	8.04
442.953	10.86
443.204	13.34
443.454	9.33
443.704	10.75
443.954	8.48
444.204	9.49
444.455	11.45
444.705	13.19
444.955	14.33
445.205	13.3
445.455	12.3
445.705	12.44
445.955	13.93
446.205	13.54
446.455	14.67
446.705	16.04
446.955	18.91
447.205	22.07
447.455	25.93
447.705	23.94
447.955	25.99
448.205	26.01
448.454	25.32
448.704	26.8
448.954	27.69
449.204	30.15
449.454	32.04
449.704	31.31
449.953	31.12
450.203	35.04
450.453	34.99
450.703	37.57
450.952	36.82
451.202	40.46
451.452	40.01
451.701	44.14
451.951	49.15
452.201	48.56
452.45	48.44
452.7	50.13
452.949	51.51
453.199	52.23
453.448	53.98
453.698	55.89
453.947	57.69
454.197	57.44
454.446	57.96
454.696	61.3
454.945	61.62
455.195	60.77
455.444	63.35
455.693	66.62
455.943	65.34
456.192	68.17
456.442	69.67
456.691	70.33
456.94	70.01
457.189	70.06
457.439	71.61
457.688	73.85
457.937	73.21
458.186	72.95
458.436	74.18
458.685	75.38
458.934	73.62
459.183	73.88
459.432	74.95
459.681	74.21
459.93	74.2
460.179	74.09
460.429	73.2
460.678	76.07
460.927	79.29
461.176	79.28
461.425	78.76
461.674	79.84
461.923	81.93
462.172	81.3
462.42	79.2
462.669	80.86
462.918	81.24
463.167	79.83
463.416	77.25
463.665	78.84
463.914	78.93
464.162	76.51
464.411	77.28
464.66	78.35
464.909	77.65
465.158	78.1
465.406	76.97
465.655	78.24
465.904	79.67
466.152	79.13
466.401	79.87
466.65	83.3
466.898	81.29
467.147	77.14
467.395	74.96
467.644	76.91
467.893	75.26
468.141	75.98
468.39	73.17
468.638	70.09
468.887	67.25
469.135	66.74
469.384	65.5
469.632	64.57
469.88	63.76
470.129	65.92
470.377	62.66
470.626	65.12
470.874	68.08
471.122	69.05
471.371	67.75
471.619	67.21
471.867	69.64
472.115	68.82
472.364	67.09
472.612	69.06
472.86	67.73
473.108	69.13
473.356	68.8
473.605	67.9
473.853	64.15
474.101	63.47
474.349	61.12
474.597	65.02
474.845	64.09
475.093	63.45
475.341	60.38
475.589	61.89
475.837	62.86
476.085	64.06
476.333	63.52
476.581	66.21
476.829	65.54
477.077	68.25
477.325	68.51
477.573	71.01
477.821	69.03
478.069	71.32
478.317	70.1
478.564	70.54
478.812	70.17
479.06	68.81
479.308	66.45
479.555	67.09
479.803	66.01
480.051	68.34
480.299	68.95
480.546	70.23
480.794	67.47
481.042	67.68
481.289	67.47
481.537	69.83
481.784	68.08
482.032	70.88
482.28	70.65
482.527	70.43
482.775	71.6
483.022	74.24
483.27	76.33
483.517	79.13
483.765	78.22
484.012	77.85
484.259	73.98
484.507	77.24
484.754	76.38
485.002	76.61
485.249	75.75
485.496	79.31
485.744	78.44
485.991	78.29
486.238	77.55
486.486	79.89
486.733	82.15
486.98	86.26
487.227	84.04
487.474	86.23
487.722	87.83
487.969	85.55
488.216	86.33
488.463	88.29
488.71	86.03
488.957	85.07
489.204	85.11
489.451	87.96
489.699	87.73
489.946	84.55
490.193	85.32
490.44	83.99
490.687	84.6
490.934	82.23
491.18	79.3
491.427	80.53
491.674	84.53
491.921	86.97
492.168	84.97
492.415	84.71
492.662	85.26
492.909	87.79
493.155	86.49
493.402	85.17
493.649	82.57
493.896	83.06
494.142	80.13
494.389	81.12
494.636	79.11
494.883	77.26
495.129	76.85
495.376	75.65
495.623	78.32
495.869	80.33
496.116	81.07
496.362	83.97
496.609	88.47
496.855	94.16
497.102	92.94
497.348	93.49
497.595	96.41
497.841	101.14
498.088	102.62
498.334	100.61
498.581	99.81
498.827	100.53
499.074	100.97
499.32	100.95
499.566	103.94
499.813	106.05
500.059	103.59
500.305	104.54
500.552	104.37
500.798	104.56
501.044	110.11
501.29	110.26
501.537	108.62
501.783	111.52
502.029	113.87
502.275	111.42
502.521	112
502.767	113.04
503.013	116.02
503.26	113.48
503.506	110.4
503.752	111.94
503.998	110.65
504.244	111.83
504.49	108.02
504.736	110.44
504.982	108.54
505.228	109.88
505.474	110.37
505.72	110.97
505.966	112.84
506.211	115.79
506.457	115.89
506.703	113.81
506.949	113.19
507.195	111.31
507.441	107.62
507.686	112.57
507.932	112.16
508.178	113.5
508.424	111.03
508.669	108.1
508.915	109.36
509.161	111.62
509.406	111.5
509.652	111.28
509.898	115.16
510.143	115.97
510.389	114.57
510.634	111.67
510.88	114.44
511.125	118.03
511.371	118.71
511.616	119.34
511.862	115.5
512.107	113.56
512.353	114.65
512.598	116.36
512.844	114.05
513.089	111.94
513.335	113.23
513.58	111.8
513.825	112.2
514.071	111.17
514.316	111.41
514.561	112.41
514.806	112.71
515.052	116.7
515.297	115.45
515.542	116.4
515.787	116.11
516.033	118.06
516.278	118.46
516.523	117.39
516.768	116.75
517.013	114.79
517.258	113.24
517.503	113.03
517.748	113.26
517.993	112.68
518.238	113.32
518.483	113.87
518.728	111.73
518.973	108.87
519.218	109.57
519.463	111.21
519.708	111.57
519.953	109.85
520.198	110.01
520.443	112.71
520.688	115.45
520.933	113
521.177	113.34
521.422	112.15
521.667	114.58
521.912	116.06
522.157	111.95
522.401	114.87
522.646	113.54
522.891	113.07
523.135	112.88
523.38	112.75
523.625	111.48
523.869	112.02
524.114	114.31
524.358	112.54
524.603	113.52
524.848	110.89
525.092	109.48
525.337	111.74
525.581	113.43
525.826	114.25
526.07	113.69
526.315	114.51
526.559	113.53
526.803	111.41
527.048	114.56
527.292	115.07
527.537	114.91
527.781	114.17
528.025	111.26
528.269	111.83
528.514	112.5
528.758	111.8
529.002	112.08
529.247	115.03
529.491	111.93
529.735	115.53
529.979	113.36
530.223	115.19
530.467	112.08
530.712	109.86
530.956	107.56
531.2	108.74
531.444	107.04
531.688	107.9
531.932	107.5
532.176	107.49
532.42	107.86
532.664	109.56
532.908	107.58
533.152	105.82
533.396	105.08
533.64	104.08
533.884	101.98
534.128	101.53
534.371	102.41
534.615	101.43
534.859	100.05
535.103	98.86
535.347	97.7
535.59	99.03
535.834	94.38
536.078	96.87
536.322	97.79
536.565	99.41
536.809	96.58
537.053	99.33
537.296	97.02
537.54	97.21
537.784	94.69
538.027	97.2
538.271	95.8
538.514	95.32
538.758	94.24
539.001	92.48
539.245	92.38
539.488	93.61
539.732	95.96
539.975	97.29
540.219	98.82
540.462	97.85
540.706	99.71
540.949	99.6
541.192	99.1
541.436	103.8
541.679	109.28
541.922	110.82
542.166	106.39
542.409	106.59
542.652	106.56
542.895	108.27
543.139	108.09
543.382	112.66
543.625	110.43
543.868	110.44
544.111	108.18
544.354	106.35
544.598	103.51
544.841	105.45
545.084	104.05
545.327	102.99
545.57	103.76
545.813	106.2
546.056	105.32
546.299	106.49
546.542	109.54
546.785	109.64
547.028	109.28
547.271	107.47
547.514	107.73
547.756	105.12
547.999	105.79
548.242	105.78
548.485	102.43
548.728	102.62
548.971	97.55
549.213	96.57
549.456	94.69
549.699	94.42
549.942	93.9
550.184	93.5
550.427	91.91
550.67	92.2
550.912	87.05
551.155	88.01
551.398	87.43
551.64	86.08
551.883	85.66
552.125	86.26
552.368	85.38
552.61	82.5
552.853	84.69
553.095	82.24
553.338	81.51
553.58	82.59
553.823	80
554.065	83.01
554.308	80.51
554.55	79.73
554.792	76.85
555.035	74.47
555.277	72.74
555.519	72.93
555.762	70.54
556.004	71.9
556.246	68.37
556.488	69.1
556.731	64.73
556.973	66.36
557.215	66.49
557.457	67.68
