Data from FLMT021711__20__17-56-53-823.txt Node

Date: Tue Nov 05 17:56:53 CET 2024
User: Etudiants TP
Spectrometer: FLMT02171
Trigger mode: 0
Integration Time (sec): 1.000000E-1
Scans to average: 5
Electric dark correction enabled: true
Nonlinearity correction enabled: false
Boxcar width: 15
XAxis mode: Wavelengths
Number of Pixels in Spectrum: 3648
>>>>>Begin Spectral Data<<<<<
194.658	-64.22
194.923	-61.79
195.188	-52.88
195.453	-52.75
195.717	-46.1
195.982	-44.31
196.247	-43.32
196.512	-45.47
196.777	-43.95
197.042	-42.26
197.307	-41.13
197.572	-36.72
197.837	-36.58
198.101	-33.84
198.366	-31.8
198.631	-30.15
198.896	-24.11
199.161	-16.61
199.425	-8.63
199.69	2.36
199.955	2.84
200.22	1.23
200.484	1.4
200.749	1.07
201.014	1.84
201.278	2.93
201.543	4.53
201.807	3.94
202.072	4.33
202.337	4.1
202.601	4.61
202.866	3.27
203.13	5.42
203.395	2.37
203.659	2.49
203.924	-0.04
204.189	-0.34
204.453	1.11
204.717	3.04
204.982	4.25
205.246	6.04
205.511	6.76
205.775	5.9
206.04	10.74
206.304	10.5
206.568	13.13
206.833	13.4
207.097	14.03
207.361	14.87
207.626	18.95
207.89	19.24
208.154	18.77
208.419	20.23
208.683	19.9
208.947	22.07
209.211	21.39
209.476	20.09
209.74	19.94
210.004	20.37
210.268	21.32
210.532	23.9
210.796	25.83
211.061	26.55
211.325	25.77
211.589	24.88
211.853	26.21
212.117	26.98
212.381	28.26
212.645	29.28
212.909	30.06
213.173	27.66
213.437	28.47
213.701	29.39
213.965	30.99
214.229	26.72
214.493	26.96
214.757	24.76
215.021	25.02
215.285	30.32
215.549	33.97
215.813	31.17
216.077	30.5
216.34	33.2
216.604	32.37
216.868	33.66
217.132	34.1
217.396	34.49
217.659	35.1
217.923	31.04
218.187	31.63
218.451	31.52
218.714	29.31
218.978	27.65
219.242	29.62
219.505	30.12
219.769	30.92
220.033	31.02
220.296	31.61
220.56	33.23
220.824	30.49
221.087	31.36
221.351	30.85
221.614	30.32
221.878	31.71
222.142	29.22
222.405	29.09
222.669	31.56
222.932	28.96
223.196	26.28
223.459	21.23
223.722	21.21
223.986	19.19
224.249	18.51
224.513	16.63
224.776	16.21
225.04	15.06
225.303	14.41
225.566	13.96
225.83	16.46
226.093	20.71
226.356	18.47
226.62	16.15
226.883	17.64
227.146	18.72
227.409	18.08
227.673	16.79
227.936	17.82
228.199	18.46
228.462	16.38
228.725	15.11
228.989	15.64
229.252	16.18
229.515	22.35
229.778	19.23
230.041	18.6
230.304	17.26
230.567	18.39
230.83	15.97
231.093	18.65
231.356	19.09
231.619	27.77
231.882	26.18
232.145	29.48
232.408	27.69
232.671	27.37
232.934	27.05
233.197	26.05
233.46	25.84
233.723	27.3
233.986	24.97
234.249	22.48
234.512	25.43
234.775	29.03
235.037	28.7
235.3	28.18
235.563	28.21
235.826	29.13
236.089	29.88
236.351	29.15
236.614	31.37
236.877	30.95
237.14	32.23
237.402	31.25
237.665	24.64
237.928	24.99
238.19	22.6
238.453	24.44
238.716	22.76
238.978	23.12
239.241	21.61
239.503	24.42
239.766	18.79
240.029	16.18
240.291	18.78
240.554	18.3
240.816	18.07
241.079	17.96
241.341	18.11
241.604	16.44
241.866	12.97
242.129	14.12
242.391	14.51
242.653	12.71
242.916	12.93
243.178	11.85
243.441	12.79
243.703	11.73
243.965	9.96
244.228	10.15
244.49	10.02
244.752	11.14
245.015	11.93
245.277	14.18
245.539	13.85
245.801	15.67
246.064	14.64
246.326	13.8
246.588	13.57
246.85	17.09
247.112	17.67
247.374	20.6
247.637	22.4
247.899	21.86
248.161	23.32
248.423	18.14
248.685	18.8
248.947	19.39
249.209	21.06
249.471	20.67
249.733	22.53
249.995	22.41
250.257	22.51
250.519	21.55
250.781	24.6
251.043	21.23
251.305	23.69
251.567	24.51
251.829	25.17
252.091	24.45
252.353	20.52
252.615	21.34
252.876	19.42
253.138	18.12
253.4	14.39
253.662	15.06
253.924	16.93
254.185	18.95
254.447	19.88
254.709	19.95
254.971	21.3
255.232	23.21
255.494	21.53
255.756	19.73
256.017	20.7
256.279	21.24
256.541	20.4
256.802	20.14
257.064	20.95
257.326	19.81
257.587	23.09
257.849	23.01
258.11	25.34
258.372	26.47
258.633	28.45
258.895	26.94
259.156	26.46
259.418	24.4
259.679	21.36
259.941	19.34
260.202	23.5
260.464	25.48
260.725	24.45
260.987	23.94
261.248	23.73
261.509	24.48
261.771	24.36
262.032	25.95
262.293	26.31
262.555	25.01
262.816	23.43
263.077	20.76
263.338	17.08
263.6	16.37
263.861	15.18
264.122	13.78
264.383	15.75
264.645	17.49
264.906	16.67
265.167	15.71
265.428	15.27
265.689	14.91
265.95	13.4
266.211	14.99
266.473	12.67
266.734	9.05
266.995	6.23
267.256	7.15
267.517	9.82
267.778	12
268.039	13.81
268.3	11.64
268.561	10.11
268.822	13.62
269.083	12.08
269.344	10.98
269.604	10.16
269.865	9.78
270.126	5.29
270.387	6.89
270.648	9.29
270.909	8.53
271.17	6.98
271.43	3.7
271.691	1.57
271.952	1.2
272.213	3.36
272.473	0.9
272.734	2.7
272.995	5.01
273.256	5.87
273.516	8.49
273.777	6.24
274.038	7.46
274.298	4.52
274.559	4.41
274.82	9.16
275.08	11.04
275.341	12.54
275.601	11.36
275.862	10.27
276.122	10.36
276.383	10.8
276.643	11.8
276.904	10.08
277.164	12.54
277.425	12.49
277.685	17.04
277.946	16.89
278.206	19.16
278.467	19.19
278.727	19.88
278.987	21.22
279.248	23.02
279.508	25.88
279.768	28.53
280.029	28.46
280.289	24.49
280.549	23.45
280.81	23.72
281.07	22.42
281.33	25.44
281.59	23.61
281.851	26.2
282.111	26.18
282.371	26.18
282.631	28.6
282.891	28.23
283.151	27.15
283.412	25.82
283.672	25.83
283.932	25.15
284.192	26.01
284.452	23.68
284.712	22.77
284.972	21.02
285.232	19.25
285.492	21.6
285.752	19.71
286.012	25.93
286.272	27.22
286.532	25.02
286.792	23.87
287.052	25.67
287.312	25.1
287.571	24.38
287.831	23.64
288.091	22.65
288.351	22.52
288.611	26.22
288.871	24.85
289.13	24.72
289.39	18.38
289.65	19.41
289.91	16.31
290.17	18.95
290.429	21.19
290.689	18.14
290.949	15.07
291.208	17.5
291.468	21.19
291.728	22.25
291.987	24.66
292.247	22.52
292.506	26.12
292.766	28.46
293.026	27.13
293.285	28.17
293.545	31.22
293.804	31.04
294.064	26.57
294.323	23.61
294.583	24.03
294.842	24.99
295.102	24.55
295.361	24.16
295.621	23.67
295.88	25.44
296.139	25.32
296.399	27.05
296.658	21.99
296.917	22.25
297.177	19.37
297.436	22.74
297.695	21.52
297.955	23.47
298.214	22.21
298.473	23.95
298.732	26.74
298.992	30.07
299.251	28.09
299.51	23.41
299.769	23.64
300.028	23.73
300.287	25.06
300.547	23.54
300.806	20.79
301.065	23.88
301.324	25.16
301.583	19.98
301.842	15.89
302.101	14.66
302.36	15.68
302.619	15.54
302.878	15.41
303.137	12.25
303.396	14.05
303.655	16.49
303.914	13.37
304.173	13.64
304.432	12.4
304.691	15.79
304.95	12.63
305.208	17.85
305.467	18.45
305.726	17.44
305.985	18.45
306.244	18.51
306.503	17.93
306.761	15.49
307.02	11.2
307.279	12.23
307.537	13.31
307.796	10.15
308.055	7.02
308.314	8.57
308.572	6.25
308.831	7.62
309.09	8.86
309.348	9.92
309.607	9.39
309.865	13.83
310.124	14.42
310.382	16.21
310.641	17.99
310.9	16.32
311.158	18.17
311.417	17.24
311.675	17.67
311.933	18.8
312.192	20.27
312.45	21.6
312.709	21.37
312.967	21.19
313.226	20.46
313.484	19.3
313.742	18.02
314.001	16.04
314.259	14.54
314.517	14.89
314.776	17.47
315.034	20.96
315.292	19.33
315.55	17.07
315.809	17.32
316.067	18.1
316.325	16.4
316.583	18.65
316.841	17.96
317.1	15.89
317.358	11.67
317.616	12.86
317.874	10.98
318.132	9.43
318.39	9.05
318.648	6.92
318.906	7.59
319.164	6.78
319.422	5.91
319.68	4.43
319.938	4.48
320.196	4.66
320.454	5.42
320.712	4.42
320.97	5.74
321.228	4.11
321.486	5.05
321.744	6.35
322.002	8.05
322.26	7.93
322.517	7.97
322.775	4.86
323.033	2.8
323.291	5.43
323.549	7
323.806	8.27
324.064	7.83
324.322	7.85
324.58	6.04
324.837	8.27
325.095	4.79
325.353	7.58
325.61	8.11
325.868	8.35
326.126	10.47
326.383	9.52
326.641	8.67
326.898	9.48
327.156	9.17
327.413	9.24
327.671	10.26
327.928	11.82
328.186	12.87
328.443	11.21
328.701	16.22
328.958	17.44
329.216	17.49
329.473	16.45
329.731	16.62
329.988	16.85
330.245	17.58
330.503	17.31
330.76	18.29
331.017	20.31
331.275	16.68
331.532	17.25
331.789	14.99
332.047	15.93
332.304	13.69
332.561	14.87
332.818	13.8
333.076	16.05
333.333	17.58
333.59	18.54
333.847	19.43
334.104	17.91
334.361	17.24
334.618	16.87
334.876	15.56
335.133	17.07
335.39	15.9
335.647	16.5
335.904	13.56
336.161	11.06
336.418	12.22
336.675	8.12
336.932	8.91
337.189	8.27
337.446	8.56
337.703	8.66
337.96	4.43
338.216	6.37
338.473	3.15
338.73	3.01
338.987	2.64
339.244	6.4
339.501	5.22
339.757	6.92
340.014	7.85
340.271	9.79
340.528	10.65
340.785	14.23
341.041	15.59
341.298	11.47
341.555	10.96
341.811	10.03
342.068	8.32
342.325	7.94
342.581	10.28
342.838	12.17
343.094	11.22
343.351	11.41
343.608	8.98
343.864	12.86
344.121	14.84
344.377	13.4
344.634	12.58
344.89	11.22
345.147	10.62
345.403	9.22
345.66	9.04
345.916	12.25
346.172	9.06
346.429	9.08
346.685	7.18
346.942	8.24
347.198	4.16
347.454	4.82
347.711	4.99
347.967	1.56
348.223	1.77
348.48	1.25
348.736	4.24
348.992	3.11
349.248	5.91
349.504	4.66
349.761	4.68
350.017	4.95
350.273	5.7
350.529	4.74
350.785	2.61
351.041	1.85
351.297	2.89
351.554	2.61
351.81	-0.94
352.066	-3.27
352.322	-2.87
352.578	-3.25
352.834	-3.67
353.09	-2.2
353.346	-1.06
353.602	-1.62
353.858	-2.63
354.114	-2.35
354.369	-0.52
354.625	2.43
354.881	0.12
355.137	2.98
355.393	2.78
355.649	3.41
355.905	5.21
356.16	5.97
356.416	6.49
356.672	-0.92
356.928	0.04
357.183	0.21
357.439	1.44
357.695	0.86
357.951	5.46
358.206	4.13
358.462	4.07
358.718	3.01
358.973	4.1
359.229	4.54
359.484	4.17
359.74	7.59
359.996	8.37
360.251	12.33
360.507	12.16
360.762	12.57
361.018	15.13
361.273	12.01
361.529	11.79
361.784	11.62
362.04	12.97
362.295	11.34
362.55	11.21
362.806	12.8
363.061	13.48
363.316	13.9
363.572	13.81
363.827	15.04
364.082	12.88
364.338	12.92
364.593	14.17
364.848	14.76
365.104	13.14
365.359	16.03
365.614	15.98
365.869	13.17
366.124	13.68
366.38	13.19
366.635	14.47
366.89	16.29
367.145	16.52
367.4	21.2
367.655	20.5
367.91	20.93
368.165	19.06
368.42	16.4
368.675	16.49
368.93	16.19
369.185	15.25
369.44	16.78
369.695	18.86
369.95	18.46
370.205	18.26
370.46	16.48
370.715	15.92
370.97	16.01
371.225	16.87
371.48	18
371.734	17.84
371.989	18.51
372.244	18.19
372.499	19.71
372.754	18.93
373.008	16.56
373.263	11.21
373.518	13.81
373.773	13.35
374.027	12.45
374.282	13.63
374.537	14.76
374.791	14.83
375.046	12.96
375.301	10.33
375.555	8.4
375.81	9.73
376.064	9.42
376.319	13.6
376.573	14
376.828	10.05
377.082	14.92
377.337	11.82
377.591	8.93
377.846	7.94
378.1	11.36
378.355	12.71
378.609	11.5
378.863	8.19
379.118	8.52
379.372	6.98
379.627	7
379.881	4.62
380.135	4.07
380.389	2.7
380.644	3.32
380.898	5.55
381.152	7.34
381.407	6.73
381.661	7.9
381.915	9.91
382.169	11.03
382.423	10.03
382.677	5.95
382.932	6.38
383.186	7.08
383.44	7.89
383.694	8.8
383.948	7.36
384.202	5.43
384.456	6.21
384.71	8.03
384.964	6.09
385.218	9
385.472	9.99
385.726	9.79
385.98	9.4
386.234	8.96
386.488	8.17
386.742	9.6
386.996	8.82
387.249	9.44
387.503	10.93
387.757	13.63
388.011	13.61
388.265	14.51
388.518	13.66
388.772	14.27
389.026	15.98
389.28	13.02
389.533	12.92
389.787	14.9
390.041	12.53
390.295	13.53
390.548	14.7
390.802	17.83
391.055	16.65
391.309	15.36
391.563	12.8
391.816	13.03
392.07	13.04
392.323	13.9
392.577	15.78
392.83	17.99
393.084	22.65
393.337	25.57
393.591	26.51
393.844	26.68
394.098	31
394.351	34.12
394.604	37.32
394.858	38.56
395.111	39.31
395.364	35.56
395.618	36.88
395.871	35.63
396.124	35.34
396.378	36.21
396.631	36.49
396.884	33.66
397.137	34.04
397.391	34.88
397.644	30.86
397.897	30.91
398.15	30.39
398.403	34.93
398.657	34.73
398.91	34.23
399.163	36.09
399.416	36.28
399.669	36.15
399.922	34.8
400.175	32.22
400.428	31.26
400.681	30.82
400.934	26.64
401.187	25.46
401.44	25.67
401.693	22.94
401.946	18.21
402.199	13.56
402.452	11.9
402.704	9.31
402.957	6.98
403.21	9.12
403.463	8.17
403.716	9.18
403.969	9.78
404.221	7.59
404.474	8.81
404.727	12.18
404.98	13.91
405.232	13.26
405.485	16.39
405.738	20.18
405.99	21.82
406.243	21.75
406.496	22.44
406.748	22.7
407.001	21.27
407.253	22.04
407.506	21.49
407.759	22
408.011	20.33
408.264	20.34
408.516	19.51
408.769	17.3
409.021	18.39
409.274	18.1
409.526	20.61
409.778	22.4
410.031	26.22
410.283	26.19
410.536	30.77
410.788	30.27
411.04	29.65
411.293	30.71
411.545	31.83
411.797	31.44
412.049	32.21
412.302	32.71
412.554	33.26
412.806	31.6
413.058	29.53
413.311	29.12
413.563	26.92
413.815	25.56
414.067	22.79
414.319	21.35
414.571	20.71
414.823	18.98
415.075	17.87
415.328	19.31
415.58	23.95
415.832	25.39
416.084	25.87
416.336	24.2
416.588	27.61
416.84	26.16
417.091	28.56
417.343	25.22
417.595	26.6
417.847	27.78
418.099	27.24
418.351	26.17
418.603	29.03
418.855	29.54
419.106	30.5
419.358	31.25
419.61	30.77
419.862	31.34
420.114	29.58
420.365	28.21
420.617	29.28
420.869	27.52
421.12	26.72
421.372	27.8
421.624	26.87
421.875	27.09
422.127	24.64
422.379	26.29
422.63	28.88
422.882	27.82
423.133	27.69
423.385	27.11
423.636	29.73
423.888	31.78
424.139	34.88
424.391	33.94
424.642	31.79
424.894	29.49
425.145	29.62
425.396	24.7
425.648	25.7
425.899	24.88
426.151	24.06
426.402	22.48
426.653	24.13
426.905	21.58
427.156	18.95
427.407	18.71
427.658	19.34
427.91	16.95
428.161	17.16
428.412	17.92
428.663	19.2
428.914	20.11
429.166	20.11
429.417	20.34
429.668	18.42
429.919	15.53
430.17	14.73
430.421	14.63
430.672	18.29
430.923	18.55
431.174	17.31
431.425	15.77
431.676	13.9
431.927	11.29
432.178	12.59
432.429	12.35
432.68	12.36
432.931	15.43
433.182	20.19
433.433	17.6
433.683	18.98
433.934	19.15
434.185	18.64
434.436	16.33
434.687	18.97
434.937	20.43
435.188	18.54
435.439	17.26
435.69	19.24
435.94	17.6
436.191	19.63
436.442	21.57
436.692	20.81
436.943	17.81
437.194	16.88
437.444	19.22
437.695	24.23
437.945	23.67
438.196	23.15
438.447	21.72
438.697	20.29
438.948	18.19
439.198	15.35
439.449	11.93
439.699	12.32
439.949	10.82
440.2	11.91
440.45	14.04
440.701	12.71
440.951	10.56
441.201	12.28
441.452	10.88
441.702	10.47
441.952	12.16
442.203	12.27
442.453	8.75
442.703	9.46
442.953	10.04
443.204	11.75
443.454	10.24
443.704	10.86
443.954	6.32
444.204	6.12
444.455	6.98
444.705	9.07
444.955	9.91
445.205	10.09
445.455	6.86
445.705	7.34
445.955	7.16
446.205	5.5
446.455	7.15
446.705	8.73
446.955	10.42
447.205	13.13
447.455	14.32
447.705	12.4
447.955	11.71
448.205	10.93
448.454	10.31
448.704	11.99
448.954	10.16
449.204	10.33
449.454	10.51
449.704	8.45
449.953	8.87
450.203	10.99
450.453	9.09
450.703	11.92
450.952	9.82
451.202	11.11
451.452	10.16
451.701	12.85
451.951	15.54
452.201	15.23
452.45	14.16
452.7	15.84
452.949	14.04
453.199	14.89
453.448	17.11
453.698	18.34
453.947	18.2
454.197	18.01
454.446	16.93
454.696	20.25
454.945	19.46
455.195	18.39
455.444	18.98
455.693	22.58
455.943	21.49
456.192	22.82
456.442	22.16
456.691	22.32
456.94	22.98
457.189	21.64
457.439	23.79
457.688	25.24
457.937	24.27
458.186	24.76
458.436	24.68
458.685	26.44
458.934	26.2
459.183	26.1
459.432	29.21
459.681	28.53
459.93	26.66
460.179	26.65
460.429	24.02
460.678	26.77
460.927	28.63
461.176	27.28
461.425	27.37
461.674	29.64
461.923	28.33
462.172	27.92
462.42	26.12
462.669	27.86
462.918	27.34
463.167	27.64
463.416	25.13
463.665	25.99
463.914	26.61
464.162	25.08
464.411	24.8
464.66	25.79
464.909	23.64
465.158	23.61
465.406	22.66
465.655	24.18
465.904	26.56
466.152	27.13
466.401	27.33
466.65	28.77
466.898	28.64
467.147	24.98
467.395	25.2
467.644	28.42
467.893	27.9
468.141	27.92
468.39	26.31
468.638	24.76
468.887	23.32
469.135	22.03
469.384	22.35
469.632	23.68
469.88	23.35
470.129	25.44
470.377	22.6
470.626	25.73
470.874	26.4
471.122	26.9
471.371	26.52
471.619	24.68
471.867	28.15
472.115	29.01
472.364	26.71
472.612	31.08
472.86	29.05
473.108	29.83
473.356	30.35
473.605	28.27
473.853	24.38
474.101	24.12
474.349	22.53
474.597	25.32
474.845	23.44
475.093	21.75
475.341	17.92
475.589	18.55
475.837	20.14
476.085	21.26
476.333	19.66
476.581	21.23
476.829	20.28
477.077	21.53
477.325	20.74
477.573	22.82
477.821	20.81
478.069	22.26
478.317	21.23
478.564	24.13
478.812	21.44
479.06	18.82
479.308	18.77
479.555	19.57
479.803	17.83
480.051	20.02
480.299	18.74
480.546	20
480.794	17.05
481.042	17.95
481.289	18.66
481.537	20.02
481.784	18.95
482.032	21.81
482.28	20.87
482.527	20.36
482.775	21.3
483.022	23.9
483.27	25.93
483.517	29.53
483.765	28.54
484.012	29.73
484.259	28.4
484.507	31.11
484.754	32.34
485.002	32.26
485.249	30.65
485.496	32.63
485.744	31.18
485.991	31.21
486.238	29.57
486.486	33.68
486.733	35.44
486.98	37.33
487.227	34.11
487.474	36.71
487.722	39.46
487.969	36.99
488.216	36.88
488.463	38.02
488.71	34.99
488.957	34.6
489.204	33.68
489.451	34.63
489.699	33.68
489.946	31.11
490.193	32.45
490.44	31.89
490.687	33.01
490.934	30.5
491.18	26.78
491.427	29.45
491.674	31.62
491.921	31.34
492.168	29.27
492.415	25.06
492.662	26.28
492.909	27.93
493.155	26.73
493.402	25.73
493.649	23.69
493.896	23.76
494.142	20
494.389	19.88
494.636	18.63
494.883	17.5
495.129	16.06
495.376	12.19
495.623	14.61
495.869	16.35
496.116	18.22
496.362	20.17
496.609	22
496.855	28.67
497.102	27.83
497.348	28.17
497.595	29.7
497.841	33.84
498.088	33.08
498.334	31.28
498.581	30.1
498.827	29.75
499.074	28.76
499.32	30.48
499.566	34.02
499.813	35.41
500.059	34.64
500.305	34.87
500.552	35.7
500.798	34.78
501.044	39.42
501.29	38.96
501.537	35.82
501.783	38.06
502.029	40.74
502.275	37.85
502.521	36.29
502.767	36.07
503.013	39.39
503.26	37.15
503.506	33.86
503.752	35.4
503.998	34.74
504.244	35.67
504.49	32.26
504.736	34.32
504.982	32.81
505.228	35.13
505.474	34.36
505.72	35.07
505.966	33.86
506.211	37.84
506.457	37.14
506.703	35.04
506.949	32.41
507.195	31.1
507.441	27.87
507.686	31.37
507.932	31.51
508.178	31.29
508.424	30.26
508.669	27.91
508.915	28.73
509.161	32.29
509.406	34.19
509.652	34.45
509.898	39.23
510.143	40.59
510.389	40.05
510.634	36.2
510.88	40.09
511.125	44.47
511.371	44.84
511.616	45.11
511.862	42.83
512.107	41.15
512.353	43.5
512.598	43.86
512.844	42.83
513.089	41.96
513.335	42.1
513.58	43.32
513.825	43.3
514.071	43.91
514.316	44.25
514.561	46.2
514.806	45.03
515.052	49.19
515.297	48.34
515.542	49.68
515.787	50.96
516.033	53.5
516.278	54.7
516.523	55.28
516.768	54.71
517.013	51.27
517.258	50.46
517.503	48.73
517.748	49.72
517.993	50.68
518.238	53.02
518.483	51.31
518.728	49.2
518.973	47.13
519.218	46.62
519.463	47.53
519.708	48.3
519.953	46.41
520.198	47.15
520.443	48.47
520.688	49.8
520.933	49.8
521.177	50.81
521.422	48.8
521.667	53.43
521.912	53.46
522.157	49.94
522.401	52.79
522.646	52.62
522.891	52.99
523.135	53.88
523.38	54.16
523.625	54.26
523.869	56.38
524.114	57.02
524.358	56.06
524.603	57.1
524.848	55.43
525.092	56.86
525.337	57.79
525.581	59.74
525.826	61.52
526.07	62.6
526.315	64.05
526.559	64.1
526.803	62.77
527.048	66.75
527.292	66.35
527.537	67.09
527.781	67.41
528.025	65.09
528.269	66.74
528.514	68.53
528.758	67.12
529.002	68.75
529.247	70.42
529.491	70.73
529.735	76.37
529.979	76.04
530.223	76.89
530.467	74.58
530.712	71.25
530.956	71.01
531.2	71.72
531.444	70.12
531.688	72.75
531.932	72.76
532.176	74.69
532.42	76.57
532.664	77.14
532.908	76.52
533.152	74.82
533.396	74.95
533.64	74.85
533.884	73.02
534.128	72.4
534.371	75.99
534.615	77.48
534.859	77.86
535.103	76.03
535.347	75.69
535.59	77.74
535.834	75.13
536.078	75.24
536.322	76.65
536.565	78.65
536.809	76.29
537.053	77.4
537.296	75.02
537.54	75.56
537.784	75.72
538.027	78.65
538.271	79.11
538.514	77.21
538.758	75.98
539.001	73.61
539.245	73.22
539.488	74.57
539.732	76.41
539.975	76.99
540.219	79.49
540.462	79.74
540.706	82.22
540.949	81.14
541.192	80.87
541.436	86.49
541.679	91.56
541.922	91.17
542.166	85.99
542.409	84.89
542.652	85.31
542.895	87.17
543.139	88.08
543.382	92.39
543.625	93.57
543.868	94.31
544.111	92.65
544.354	91.4
544.598	89.53
544.841	90.24
545.084	88.96
545.327	87.25
545.57	87.25
545.813	88.67
546.056	88.69
546.299	90
546.542	92.9
546.785	95.25
547.028	96.28
547.271	94.62
547.514	94.27
547.756	91.81
547.999	92.02
548.242	92.3
548.485	89.87
548.728	90.91
548.971	85.22
549.213	85.28
549.456	84.58
549.699	85.06
549.942	86.48
550.184	86.55
550.427	85.27
550.67	84.38
550.912	79.37
551.155	79
551.398	78.47
551.64	77.93
551.883	78.17
552.125	77.31
552.368	76.73
552.61	74.89
552.853	76.71
553.095	76.93
553.338	76.54
553.58	78.17
553.823	76.29
554.065	78.69
554.308	73.35
554.55	70.69
554.792	68.67
555.035	66.06
555.277	63.84
555.519	65.56
555.762	63.63
556.004	64.25
556.246	60.46
556.488	61.76
556.731	59.68
556.973	61.32
557.215	60.04
557.457	60.94
557.699	62.96
557.941	60.47
558.183	59.92
558.426	62.46
558.668	59.75
558.91	60.05
559.152	60.3
559.394	60.4
559.636	64.39
