Data from FLMT021711__13__17-55-37-705.txt Node

Date: Tue Nov 05 17:55:37 CET 2024
User: Etudiants TP
Spectrometer: FLMT02171
Trigger mode: 0
Integration Time (sec): 1,000000E-1
Scans to average: 5
Electric dark correction enabled: true
Nonlinearity correction enabled: false
Boxcar width: 15
XAxis mode: Wavelengths
Number of Pixels in Spectrum: 3648
>>>>>Begin Spectral Data<<<<<
194,658	-67,9
194,923	-66,22
195,188	-58,61
195,453	-57,9
195,717	-52,11
195,982	-50,91
196,247	-49,17
196,512	-52
196,777	-50,26
197,042	-48,93
197,307	-49,09
197,572	-44,92
197,837	-45,18
198,101	-42,53
198,366	-40,41
198,631	-38,72
198,896	-31,56
199,161	-23,58
199,425	-15,43
199,69	-5,21
199,955	-4,9
200,22	-7,75
200,484	-8,24
200,749	-9
201,014	-7,86
201,278	-6,54
201,543	-5,16
201,807	-6,69
202,072	-6,44
202,337	-6,25
202,601	-5,37
202,866	-7,53
203,13	-5,66
203,395	-7,91
203,659	-6,54
203,924	-7,51
204,189	-7,4
204,453	-4,99
204,717	-2,06
204,982	-1,52
205,246	0,77
205,511	2,17
205,775	1,47
206,04	7,25
206,304	8,18
206,568	10,01
206,833	10,2
207,097	11,03
207,361	12,4
207,626	16,74
207,89	17,04
208,154	18,34
208,419	19,75
208,683	19,83
208,947	22,07
209,211	22,42
209,476	21,52
209,74	23,39
210,004	24,05
210,268	25
210,532	27,56
210,796	27,05
211,061	28,67
211,325	28,88
211,589	27,91
211,853	28,37
212,117	29,16
212,381	30,05
212,645	29,5
212,909	30,01
213,173	28,64
213,437	29,42
213,701	29,46
213,965	30,12
214,229	25,56
214,493	24,19
214,757	24,2
215,021	24,33
215,285	27,99
215,549	29,16
215,813	26,23
216,077	26,94
216,34	27,61
216,604	27,56
216,868	27,8
217,132	28,92
217,396	27,57
217,659	28,77
217,923	24,44
218,187	24,96
218,451	25,31
218,714	21,58
218,978	22,23
219,242	25,16
219,505	25,36
219,769	25,99
220,033	25,44
220,296	26,01
220,56	27,24
220,824	24,76
221,087	24,85
221,351	24,84
221,614	23,63
221,878	26,13
222,142	24,5
222,405	23,91
222,669	27,41
222,932	23,1
223,196	21
223,459	16,64
223,722	18,56
223,986	17,49
224,249	14,97
224,513	14,56
224,776	13,17
225,04	13,1
225,303	11,71
225,566	11,34
225,83	12,46
226,093	15,88
226,356	13,85
226,62	10,58
226,883	13,81
227,146	14,15
227,409	12,88
227,673	11,58
227,936	11,48
228,199	10,52
228,462	8,66
228,725	6,82
228,989	7,11
229,252	9,15
229,515	14,48
229,778	12,45
230,041	11,34
230,304	9,96
230,567	11,64
230,83	8,62
231,093	11,93
231,356	13,21
231,619	19,94
231,882	17,44
232,145	18,71
232,408	18,19
232,671	16,22
232,934	16,29
233,197	13,99
233,46	13,51
233,723	15,44
233,986	13,51
234,249	11,64
234,512	12,57
234,775	16,74
235,037	15,41
235,3	15,9
235,563	14,94
235,826	15,28
236,089	15,93
236,351	17,25
236,614	19,07
236,877	21,07
237,14	22,87
237,402	21,24
237,665	15,13
237,928	15,03
238,19	13,3
238,453	15,33
238,716	13,83
238,978	14,48
239,241	11,75
239,503	14
239,766	9,3
240,029	7,67
240,291	10,62
240,554	11,46
240,816	12,83
241,079	12,74
241,341	13,62
241,604	12,78
241,866	9,47
242,129	11,28
242,391	10,77
242,653	11,2
242,916	10,25
243,178	9,92
243,441	10,09
243,703	9,09
243,965	7,54
244,228	7,8
244,49	7,02
244,752	7,88
245,015	8,61
245,277	10,7
245,539	9,78
245,801	11,4
246,064	11,38
246,326	10,56
246,588	10,19
246,85	12,89
247,112	12,01
247,374	14,4
247,637	16,33
247,899	17,49
248,161	19,04
248,423	15,38
248,685	14,8
248,947	14,59
249,209	16,01
249,471	17,97
249,733	19,31
249,995	17,21
250,257	15,97
250,519	16,44
250,781	18,89
251,043	17,62
251,305	21,07
251,567	21,54
251,829	22,57
252,091	22,38
252,353	19,95
252,615	20,01
252,876	17,34
253,138	15,08
253,4	10,15
253,662	10,64
253,924	12,09
254,185	13,18
254,447	13,52
254,709	14,75
254,971	15,86
255,232	18,33
255,494	17,01
255,756	13,63
256,017	12,33
256,279	12,86
256,541	12,71
256,802	12,82
257,064	13,99
257,326	11,28
257,587	11,63
257,849	12,85
258,11	16,82
258,372	16,96
258,633	17,9
258,895	17,44
259,156	15,69
259,418	13,38
259,679	9,08
259,941	7,86
260,202	10,69
260,464	12,26
260,725	11,7
260,987	11,54
261,248	11,37
261,509	12,87
261,771	12,82
262,032	14,32
262,293	14,03
262,555	14,57
262,816	13,29
263,077	9,95
263,338	7,01
263,6	7,12
263,861	7,05
264,122	7,15
264,383	9,13
264,645	10,74
264,906	9,29
265,167	9,84
265,428	10,86
265,689	11,3
265,95	8,92
266,211	10,86
266,473	11,33
266,734	7,64
266,995	3,37
267,256	5,03
267,517	6,56
267,778	10,95
268,039	12,36
268,3	10,7
268,561	9,23
268,822	12,23
269,083	9,94
269,344	8,35
269,604	7,71
269,865	7,59
270,126	3,78
270,387	5,86
270,648	7,44
270,909	7,15
271,17	7,16
271,43	4,69
271,691	2,39
271,952	1,59
272,213	3,8
272,473	1,65
272,734	2,68
272,995	3,87
273,256	3,54
273,516	5,64
273,777	2,9
274,038	4,85
274,298	0,12
274,559	-0,6
274,82	4,36
275,08	6,95
275,341	8,78
275,601	7,07
275,862	4,71
276,122	4,69
276,383	5,88
276,643	6,82
276,904	5,74
277,164	9,46
277,425	11,1
277,685	15,33
277,946	15,38
278,206	16,98
278,467	18,43
278,727	16,71
278,987	16,2
279,248	15,85
279,508	17,17
279,768	19,42
280,029	21,44
280,289	18,13
280,549	14,95
280,81	13,68
281,07	13,57
281,33	14,39
281,59	12,59
281,851	14,77
282,111	14,77
282,371	15,3
282,631	17,17
282,891	14,81
283,151	14,76
283,412	12,44
283,672	11,71
283,932	11,82
284,192	12,86
284,452	10,72
284,712	9,09
284,972	7,97
285,232	5,27
285,492	5,97
285,752	2,54
286,012	9,46
286,272	11,17
286,532	7,07
286,792	7,58
287,052	9,1
287,312	9,67
287,571	8,92
287,831	9,24
288,091	5,73
288,351	6,48
288,611	12,06
288,871	12
289,13	12,84
289,39	9,99
289,65	11,64
289,91	9,12
290,17	11,54
290,429	14,23
290,689	11,82
290,949	9,92
291,208	10,44
291,468	14,13
291,728	15,33
291,987	17,48
292,247	14,9
292,506	18
292,766	21,58
293,026	19,24
293,285	20,52
293,545	23,88
293,804	23,77
294,064	19,58
294,323	16,65
294,583	17,5
294,842	18,36
295,102	17,69
295,361	17,52
295,621	18,23
295,88	19,19
296,139	17,49
296,399	18,01
296,658	12,89
296,917	12,69
297,177	8,88
297,436	10,98
297,695	9,38
297,955	11,59
298,214	9,31
298,473	11,02
298,732	12,84
298,992	15,38
299,251	15,32
299,51	10,44
299,769	12,13
300,028	10,81
300,287	12,79
300,547	11,03
300,806	8,74
301,065	13,2
301,324	14,41
301,583	10,08
301,842	7,94
302,101	5,33
302,36	6,41
302,619	7,27
302,878	7,62
303,137	6,2
303,396	8,57
303,655	11,1
303,914	7,66
304,173	10,5
304,432	10,37
304,691	14,48
304,95	12
305,208	17,18
305,467	17,34
305,726	15,53
305,985	16,1
306,244	17,67
306,503	16,81
306,761	14,47
307,02	10,99
307,279	10,62
307,537	11,81
307,796	8,26
308,055	5,48
308,314	6,06
308,572	4,86
308,831	4,91
309,09	4,36
309,348	5,68
309,607	5,11
309,865	8,36
310,124	7,97
310,382	9,07
310,641	9,14
310,9	7,36
311,158	9,25
311,417	7,54
311,675	7,43
311,933	7,89
312,192	9,03
312,45	8,33
312,709	7,2
312,967	7,1
313,226	6,92
313,484	6,16
313,742	5,17
314,001	3,61
314,259	2
314,517	2,94
314,776	5,28
315,034	8,61
315,292	6,95
315,55	5,63
315,809	5,5
316,067	6,8
316,325	5,92
316,583	7,81
316,841	8,61
317,1	6,26
317,358	2,61
317,616	2,88
317,874	2,26
318,132	2,77
318,39	2,39
318,648	2,04
318,906	1,47
319,164	-0,51
319,422	-0,77
319,68	-3,58
319,938	-1,37
320,196	-1,75
320,454	0,3
320,712	-1,3
320,97	-0,5
321,228	-3,58
321,486	-1,79
321,744	0,94
322,002	1,7
322,26	-0,84
322,517	-2,05
322,775	-5,6
323,033	-6,55
323,291	-3,79
323,549	-2,05
323,806	-0,24
324,064	1,13
324,322	1,81
324,58	0,13
324,837	1,76
325,095	0,58
325,353	3,56
325,61	5,85
325,868	4,47
326,126	6,63
326,383	5,33
326,641	4,04
326,898	5,59
327,156	5,43
327,413	6,26
327,671	8,21
327,928	9,49
328,186	10,26
328,443	7,43
328,701	11,97
328,958	13,25
329,216	14,76
329,473	11,96
329,731	11,92
329,988	12,85
330,245	15,47
330,503	16,19
330,76	18,34
331,017	20,59
331,275	17,71
331,532	17,99
331,789	16,18
332,047	15,33
332,304	12,27
332,561	12,5
332,818	10,45
333,076	12,78
333,333	12,02
333,59	10,95
333,847	12,85
334,104	10,88
334,361	10,93
334,618	10,42
334,876	9,6
335,133	9,86
335,39	7,8
335,647	8,28
335,904	5,07
336,161	4,09
336,418	5,54
336,675	1,61
336,932	2,42
337,189	2,37
337,446	4,6
337,703	3,5
337,96	-1,11
338,216	-0,3
338,473	-1,32
338,73	-1,66
338,987	-2,55
339,244	1,34
339,501	-1,62
339,757	0,22
340,014	1,39
340,271	3,21
340,528	4,97
340,785	9,08
341,041	9,23
341,298	6,9
341,555	7,59
341,811	6,93
342,068	4,6
342,325	4,84
342,581	7,27
342,838	8,65
343,094	8,97
343,351	10,48
343,608	8,2
343,864	10,61
344,121	11,1
344,377	10,64
344,634	9,21
344,89	8,05
345,147	7,12
345,403	6,24
345,66	7,09
345,916	9,98
346,172	7,7
346,429	6,25
346,685	5,39
346,942	5,66
347,198	1,8
347,454	3,71
347,711	2,51
347,967	-0,03
348,223	0,89
348,48	-0,31
348,736	1,87
348,992	1,12
349,248	2,86
349,504	1,74
349,761	2,23
350,017	2,86
350,273	2,07
350,529	0,9
350,785	-0,64
351,041	-0,9
351,297	-0,18
351,554	-0,2
351,81	-2,99
352,066	-4,5
352,322	-5,23
352,578	-3,59
352,834	-5,08
353,09	-5,14
353,346	-5,41
353,602	-6,91
353,858	-7,72
354,114	-7,72
354,369	-6,12
354,625	-3,84
354,881	-5,94
355,137	-4,04
355,393	-5,2
355,649	-4,9
355,905	-3,9
356,16	-3,56
356,416	-3,24
356,672	-10,4
356,928	-10,31
357,183	-10,3
357,439	-10,87
357,695	-12,52
357,951	-7,9
358,206	-8,04
358,462	-7,91
358,718	-10,02
358,973	-8,24
359,229	-8,24
359,484	-8,73
359,74	-5,56
359,996	-5,5
360,251	-1,43
360,507	-0,98
360,762	0,05
361,018	2,77
361,273	-0,11
361,529	1,06
361,784	1,6
362,04	3,12
362,295	1,51
362,55	2,39
362,806	5,37
363,061	5,54
363,316	6,02
363,572	6,52
363,827	8,49
364,082	4,57
364,338	5,2
364,593	6,23
364,848	7,37
365,104	7,29
365,359	9,98
365,614	9,76
365,869	7,64
366,124	8,98
366,38	8,17
366,635	11,7
366,89	11,94
367,145	10,84
367,4	14,3
367,655	14,84
367,91	15,51
368,165	12,61
368,42	8,73
368,675	8,9
368,93	9,67
369,185	9,51
369,44	10,16
369,695	11,89
369,95	10,52
370,205	10,53
370,46	9,35
370,715	7,46
370,97	8,23
371,225	10,47
371,48	12,37
371,734	11,91
371,989	14,32
372,244	14,56
372,499	15,64
372,754	14,13
373,008	10,94
373,263	7,95
373,518	11,45
373,773	9,77
374,027	7,9
374,282	10,28
374,537	10,46
374,791	11,15
375,046	10
375,301	8,81
375,555	7,03
375,81	8,05
376,064	9,31
376,319	13,49
376,573	13,35
376,828	9,16
377,082	12,88
377,337	9,91
377,591	7,07
377,846	8,44
378,1	10,01
378,355	10,38
378,609	9,47
378,863	6,48
379,118	6,06
379,372	3,82
379,627	1,48
379,881	-1,18
380,135	-2,4
380,389	-3,13
380,644	-1,47
380,898	-0,35
381,152	-0,04
381,407	-1,17
381,661	0,64
381,915	1,69
382,169	1,34
382,423	-0,82
382,677	-4,77
382,932	-3,43
383,186	-2,95
383,44	-3,26
383,694	-2,04
383,948	-4,33
384,202	-4,6
384,456	-3,09
384,71	-2,41
384,964	-4,33
385,218	-1,6
385,472	-0,78
385,726	-1,46
385,98	-0,46
386,234	-1,46
386,488	-3,67
386,742	-3,19
386,996	-4,73
387,249	-2,71
387,503	-0,14
387,757	1,18
388,011	2,78
388,265	4,3
388,518	4,74
388,772	6,48
389,026	7,37
389,28	5,59
389,533	3,51
389,787	6,34
390,041	3,21
390,295	4,05
390,548	5,12
390,802	7,27
391,055	7
391,309	6,97
391,563	5,81
391,816	7,72
392,07	6,54
392,323	6,19
392,577	7,71
392,83	8,98
393,084	14,6
393,337	17,96
393,591	19,28
393,844	18,74
394,098	22,66
394,351	27,87
394,604	30,6
394,858	32,6
395,111	31,05
395,364	28,92
395,618	32,14
395,871	29,59
396,124	28,43
396,378	27,35
396,631	28,44
396,884	26,18
397,137	25,82
397,391	26,85
397,644	22,64
397,897	23,94
398,15	24,91
398,403	27,5
398,657	25,44
398,91	24,13
399,163	25,08
399,416	25,65
399,669	24,34
399,922	21,93
400,175	21,44
400,428	20,41
400,681	19,98
400,934	14,68
401,187	13,6
401,44	13,21
401,693	11,72
401,946	7,51
402,199	1,82
402,452	-0,32
402,704	-3,27
402,957	-3,94
403,21	-1,09
403,463	-2,98
403,716	-1,38
403,969	-0,35
404,221	-0,5
404,474	-0,48
404,727	3,4
404,98	5,71
405,232	7,19
405,485	9,99
405,738	11,71
405,99	12,77
406,243	13,23
406,496	16,33
406,748	16,64
407,001	15,76
407,253	15,89
407,506	15,28
407,759	18,19
408,011	15,12
408,264	17,81
408,516	17,78
408,769	15,51
409,021	16,91
409,274	16,35
409,526	19,55
409,778	20,5
410,031	23,68
410,283	24,83
410,536	29,57
410,788	26,87
411,04	24,79
411,293	26,71
411,545	26,58
411,797	24,59
412,049	23,91
412,302	25,42
412,554	25,84
412,806	24,23
413,058	21,6
413,311	22,56
413,563	21,35
413,815	20,25
414,067	18,54
414,319	16,71
414,571	16,81
414,823	14,41
415,075	12,94
415,328	14
415,58	15,6
415,832	18,26
416,084	17,23
416,336	17,23
416,588	21,89
416,84	18,87
417,091	21,83
417,343	15,47
417,595	16,95
417,847	17,78
418,099	18,81
418,351	17,21
418,603	22,09
418,855	24,24
419,106	23,69
419,358	24,71
419,61	25,75
419,862	27,25
420,114	25,87
420,365	24,3
420,617	25,45
420,869	24,36
421,12	22,26
421,372	22,95
421,624	21,95
421,875	21,84
422,127	19,89
422,379	20,05
422,63	22,76
422,882	20,34
423,133	19,74
423,385	20,55
423,636	20,79
423,888	22,31
424,139	23,3
424,391	20,76
424,642	19,46
424,894	17,58
425,145	20,18
425,396	17,28
425,648	19,8
425,899	18,16
426,151	18,89
426,402	18
426,653	17,32
426,905	16,04
427,156	13,85
427,407	13,53
427,658	11,92
427,91	10,69
428,161	10
428,412	11,64
428,663	13,71
428,914	14,57
429,166	15,49
429,417	16,95
429,668	16,99
429,919	15,23
430,17	14,4
430,421	15,62
430,672	20,61
430,923	20,74
431,174	18,18
431,425	19,41
431,676	19,42
431,927	16,31
432,178	17,61
432,429	18,86
432,68	18,26
432,931	20,72
433,182	23,61
433,433	19,82
433,683	20,78
433,934	20,05
434,185	18,85
434,436	19,04
434,687	20,67
434,937	23,5
435,188	23,11
435,439	23,8
435,69	25,27
435,94	25,41
436,191	26,19
436,442	25,42
436,692	24,67
436,943	22,91
437,194	21,8
437,444	24,01
437,695	27,85
437,945	29,85
438,196	28,68
438,447	28,17
438,697	27,93
438,948	28,45
439,198	25,57
439,449	20,86
439,699	22,16
439,949	22,07
440,2	21,58
440,45	23,48
440,701	23,29
440,951	22,56
441,201	24,55
441,452	23,98
441,702	24,1
441,952	24,55
442,203	24,3
442,453	23,11
442,703	22,61
442,953	24,53
443,204	26,72
443,454	24,27
443,704	26,43
443,954	23,29
444,204	25,56
444,455	27,86
444,705	30,85
444,955	30,7
445,205	30,74
445,455	28,76
445,705	29,99
445,955	31
446,205	30,62
446,455	33,75
446,705	34,45
446,955	36,79
447,205	39,95
447,455	44,13
447,705	43,16
447,955	44,08
448,205	45,57
448,454	45,49
448,704	48,1
448,954	49,32
449,204	51,49
449,454	53,26
449,704	52,94
449,953	54,01
450,203	56,87
450,453	56,34
450,703	58,84
450,952	58,72
451,202	62,61
451,452	61,37
451,701	65,42
451,951	69,21
452,201	69,94
452,45	69,26
452,7	72,31
452,949	72,42
453,199	73,27
453,448	75,73
453,698	77,61
453,947	77,62
454,197	76,81
454,446	76,55
454,696	80,16
454,945	80,66
455,195	79,28
455,444	81,03
455,693	85,94
455,943	82,7
456,192	84,97
456,442	84,99
456,691	85,57
456,94	84,54
457,189	82,58
457,439	87
457,688	88,55
457,937	88,08
458,186	88,62
458,436	87,66
458,685	87,49
458,934	85,96
459,183	86,21
459,432	88,36
459,681	88,32
459,93	86,54
460,179	86,11
460,429	85,05
460,678	87,59
460,927	90,42
461,176	88,7
461,425	87,71
461,674	89,5
461,923	88,49
462,172	88,23
462,42	85,27
462,669	87,14
462,918	86,42
463,167	85,49
463,416	80,93
463,665	83,54
463,914	82,77
464,162	80,84
464,411	81,53
464,66	82,94
464,909	81,6
465,158	80,81
465,406	78,99
465,655	80,85
465,904	82,14
466,152	82,66
466,401	83,13
466,65	84,33
466,898	82,92
467,147	79,15
467,395	76,57
467,644	78,57
467,893	79,21
468,141	77,75
468,39	74,3
468,638	71,87
468,887	70,05
469,135	69,03
469,384	67,98
469,632	70,07
469,88	69,55
470,129	71,53
470,377	67,81
470,626	69,58
470,874	72,25
471,122	73,37
471,371	71,03
471,619	69,93
471,867	72,6
472,115	71,63
472,364	70,19
472,612	73,87
472,86	71,27
473,108	72,78
473,356	72,93
473,605	72,06
473,853	69,59
474,101	68,38
474,349	65,72
474,597	68,1
474,845	66,39
475,093	65,44
475,341	64,07
475,589	63,09
475,837	64,65
476,085	65,85
476,333	64,39
476,581	66,16
476,829	64,54
477,077	66,21
477,325	64,66
477,573	66,05
477,821	63,58
478,069	65,56
478,317	63,8
478,564	64,65
478,812	63,13
479,06	62,01
479,308	60,22
479,555	60,22
479,803	58,59
480,051	59,61
480,299	57,96
480,546	59,24
480,794	55,67
481,042	55,09
481,289	53,43
481,537	54,03
481,784	53,13
482,032	58,05
482,28	58,13
482,527	56,88
482,775	56,23
483,022	57,04
483,27	58,34
483,517	61,63
483,765	60,32
484,012	61,99
484,259	58,85
484,507	61,63
484,754	62,27
485,002	62,54
485,249	61,54
485,496	64,5
485,744	63,53
485,991	63,7
486,238	61,56
486,486	64,07
486,733	65,8
486,98	69,33
487,227	66,37
487,474	67,67
487,722	69,82
487,969	68,89
488,216	68,33
488,463	68,75
488,71	65,76
488,957	66,23
489,204	66,58
489,451	67,89
489,699	64,9
489,946	61,37
490,193	62,41
490,44	62,12
490,687	62,62
490,934	59,85
491,18	55,35
491,427	57,47
491,674	59,05
491,921	60,88
492,168	60,38
492,415	57,29
492,662	57,84
492,909	60,28
493,155	59,33
493,402	57,27
493,649	55,91
493,896	56,29
494,142	52,18
494,389	51,96
494,636	51,49
494,883	49,24
495,129	47,87
495,376	46,2
495,623	47,34
495,869	49,17
496,116	50,53
496,362	52,69
496,609	55,07
496,855	59,96
497,102	58,88
497,348	57,86
497,595	59,1
497,841	62,79
498,088	62,13
498,334	60,89
498,581	60,63
498,827	61,65
499,074	61,4
499,32	62,75
499,566	64,23
499,813	64,83
500,059	63,37
500,305	64,84
500,552	63,5
500,798	62,13
501,044	66,11
501,29	65,53
501,537	63,28
501,783	67
502,029	68,82
502,275	65,04
502,521	64,31
502,767	65,09
503,013	67,1
503,26	64,57
503,506	60,65
503,752	63,25
503,998	62
504,244	61,98
504,49	57,84
504,736	59,4
504,982	59,61
505,228	61,7
505,474	62,5
505,72	65,31
505,966	64,58
506,211	66,8
506,457	65,97
506,703	62,45
506,949	59,92
507,195	58,92
507,441	54,85
507,686	57,05
507,932	55,24
508,178	57,08
508,424	55
508,669	52,29
508,915	52,64
509,161	54,63
509,406	55,1
509,652	53,58
509,898	56,27
510,143	58,8
510,389	58,94
510,634	55,31
510,88	57,94
511,125	60,56
511,371	60,38
511,616	60,7
511,862	58,89
512,107	56,42
512,353	57,26
512,598	59,1
512,844	56,58
513,089	53,35
513,335	52,59
513,58	52,18
513,825	52,21
514,071	51,23
514,316	51,65
514,561	52,62
514,806	52,42
515,052	54,58
515,297	52,27
515,542	54,06
515,787	54,45
516,033	56,05
516,278	56,44
516,523	57
516,768	55,04
517,013	51,85
517,258	52,12
517,503	51,71
517,748	51,4
517,993	50,96
518,238	51,17
518,483	49,62
518,728	49,47
518,973	47,25
519,218	46,61
519,463	47,1
519,708	47,22
519,953	46,89
520,198	45,37
520,443	47,9
520,688	50,75
520,933	50,1
521,177	49,89
521,422	48,34
521,667	51,27
521,912	52,11
522,157	48,44
522,401	50,65
522,646	51,86
522,891	54,59
523,135	53,68
523,38	54,12
523,625	54,45
523,869	57,41
524,114	57,45
524,358	57,11
524,603	58,14
524,848	55,9
525,092	55,24
525,337	55,19
525,581	55,96
525,826	57,15
526,07	58,94
526,315	59,07
526,559	58
526,803	56,73
527,048	59,39
527,292	59,57
527,537	56,82
527,781	56,77
528,025	55,95
528,269	56,12
528,514	57,05
528,758	56,13
529,002	56,19
529,247	59,22
529,491	57,91
529,735	62,18
529,979	61,03
530,223	62,56
530,467	60,14
530,712	57,61
530,956	55,23
531,2	55,49
531,444	52,44
531,688	55,28
531,932	55,38
532,176	55,65
532,42	56,87
532,664	57,73
532,908	57,51
533,152	56,39
533,396	55,52
533,64	54,41
533,884	52,34
534,128	51,6
534,371	52,09
534,615	52,59
534,859	53,59
535,103	54,12
535,347	53,98
535,59	53,76
535,834	50,24
536,078	50,36
536,322	51,69
536,565	54,53
536,809	52,13
537,053	55,06
537,296	52,55
537,54	52,12
537,784	50,01
538,027	51,78
538,271	52,03
538,514	50,55
538,758	50,11
539,001	50,24
539,245	48,3
539,488	49,25
539,732	50,01
539,975	50,49
540,219	52,48
540,462	53,21
540,706	53,56
540,949	53,26
541,192	53,9
541,436	58,98
541,679	63,92
541,922	64,8
542,166	61,09
542,409	60,47
542,652	62,07
542,895	62,41
543,139	62,47
543,382	66,67
543,625	67,19
543,868	67,33
544,111	65,36
544,354	64,25
544,598	63,38
544,841	65,7
545,084	65,82
545,327	65,63
545,57	66,35
545,813	68,18
546,056	69,44
546,299	70,94
546,542	71,03
546,785	73,68
547,028	74,77
547,271	75,7
547,514	76,55
547,756	74,26
547,999	74,55
548,242	76,36
548,485	74,78
548,728	74,51
548,971	70,17
549,213	70,51
549,456	70,2
549,699	70,61
549,942	70,44
550,184	69,36
550,427	68,97
550,67	69,74
550,912	65,07
551,155	66,69
551,398	66,37
551,64	66,25
551,883	66,29
552,125	65,16
552,368	65,42
552,61	62,77
552,853	65,43
553,095	63,33
553,338	63,16
553,58	62,9
553,823	60,79
554,065	64,04
554,308	60,89
554,55	57,46
554,792	53,22
555,035	51,63
555,277	49,5
555,519	50,51
555,762	48,22
556,004	49,75
556,246	46,67
556,488	48,67
556,731	45,22
556,973	47,47
557,215	46,15
557,457	47,61
557,699	49,38
557,941	47,77
558,183	46,89
558,426	50,04
558,668	45,05
558,91	46,02
559,152	46,14
559,394	45,03
559,636	46,37
559,878	46,42
560,12	45,58
560,362	45,63
560,604	46,62
560,845	47,15
561,087	46,8
561,329	48,23
