Data from FLMT021711__7__17-54-26-602.txt Node

Date: Tue Nov 05 17:54:26 CET 2024
User: Etudiants TP
Spectrometer: FLMT02171
Trigger mode: 0
Integration Time (sec): 1.000000E-1
Scans to average: 5
Electric dark correction enabled: true
Nonlinearity correction enabled: false
Boxcar width: 15
XAxis mode: Wavelengths
Number of Pixels in Spectrum: 3648
>>>>>Begin Spectral Data<<<<<
194.658	-66.09
194.923	-64.08
195.188	-57.73
195.453	-57.11
195.717	-50.25
195.982	-47.93
196.247	-46.97
196.512	-48.84
196.777	-47.37
197.042	-45.59
197.307	-45.37
197.572	-41.51
197.837	-41.38
198.101	-38.08
198.366	-35.45
198.631	-33.68
198.896	-26.81
199.161	-19.18
199.425	-11.77
199.69	-1.45
199.955	-2.48
200.22	-5.88
200.484	-5.53
200.749	-5.92
201.014	-4.47
201.278	-5.08
201.543	-4.65
201.807	-4.52
202.072	-4.76
202.337	-4.88
202.601	-5.61
202.866	-7.12
203.13	-5.66
203.395	-7.3
203.659	-6.28
203.924	-8.85
204.189	-8.36
204.453	-6.56
204.717	-4.9
204.982	-3.89
205.246	-1.98
205.511	-0.33
205.775	-1.33
206.04	3.42
206.304	3
206.568	5.43
206.833	5.9
207.097	6.86
207.361	8.12
207.626	11.55
207.89	12.29
208.154	13.35
208.419	15.21
208.683	14.73
208.947	17.3
209.211	17.32
209.476	17.79
209.74	18.83
210.004	18.47
210.268	19.59
210.532	22.84
210.796	23.5
211.061	24.07
211.325	24.39
211.589	23.33
211.853	24.11
212.117	24.58
212.381	24.67
212.645	25.38
212.909	25.11
213.173	23.08
213.437	23.99
213.701	24.17
213.965	25.1
214.229	20.85
214.493	20.98
214.757	17.84
215.021	17.07
215.285	21.02
215.549	22.91
215.813	19.95
216.077	18.59
216.34	20.72
216.604	20.38
216.868	21.18
217.132	21.44
217.396	20.79
217.659	20.03
217.923	16.57
218.187	17.27
218.451	17.52
218.714	14.38
218.978	14.8
219.242	16.3
219.505	16.44
219.769	17.52
220.033	16.98
220.296	17.97
220.56	18.39
220.824	16.02
221.087	16.88
221.351	17.38
221.614	15.86
221.878	17.3
222.142	15.68
222.405	16.25
222.669	18.3
222.932	16.75
223.196	15.21
223.459	11.99
223.722	13.14
223.986	12.16
224.249	10.95
224.513	11.08
224.776	10.23
225.04	9.2
225.303	9.03
225.566	8.87
225.83	10.64
226.093	13.27
226.356	10.85
226.62	9.11
226.883	11.02
227.146	10.9
227.409	11.41
227.673	9.9
227.936	7.92
228.199	8.22
228.462	5.61
228.725	4.62
228.989	3.55
229.252	5.96
229.515	10.87
229.778	9.24
230.041	8.06
230.304	6.04
230.567	6.08
230.83	4.06
231.093	6.28
231.356	5.97
231.619	10.9
231.882	8.09
232.145	10.65
232.408	10.6
232.671	10.26
232.934	10.14
233.197	9.65
233.46	8.14
233.723	10.15
233.986	9.46
234.249	7.32
234.512	9.89
234.775	13.44
235.037	12.28
235.3	12.5
235.563	12.32
235.826	13.23
236.089	15.51
236.351	14.71
236.614	16.64
236.877	17.19
237.14	20.26
237.402	18.94
237.665	13.13
237.928	12.98
238.19	10.52
238.453	12.81
238.716	12.75
238.978	11.2
239.241	9.82
239.503	12.73
239.766	8.81
240.029	7.94
240.291	12.12
240.554	11.38
240.816	9.51
241.079	10.01
241.341	9.65
241.604	8.94
241.866	5.73
242.129	6.82
242.391	8.53
242.653	7.58
242.916	7.46
243.178	7.3
243.441	8.2
243.703	7.2
243.965	5.73
244.228	7.04
244.49	7.06
244.752	9.1
245.015	11.13
245.277	12.83
245.539	11.55
245.801	12.45
246.064	11.56
246.326	11.71
246.588	12.06
246.85	13.26
247.112	14.97
247.374	16.2
247.637	17.69
247.899	17.49
248.161	18.33
248.423	12.24
248.685	13.04
248.947	13.59
249.209	14.79
249.471	17.05
249.733	19
249.995	17.21
250.257	15.5
250.519	13.99
250.781	17.63
251.043	15.05
251.305	17.84
251.567	20.1
251.829	19.28
252.091	19.53
252.353	15.07
252.615	14.87
252.876	11.63
253.138	9.03
253.4	4.76
253.662	5.65
253.924	7.26
254.185	9.11
254.447	9.75
254.709	10.4
254.971	12.19
255.232	13.63
255.494	12.83
255.756	10.91
256.017	10.74
256.279	11.08
256.541	12.1
256.802	12.27
257.064	12.19
257.326	10.5
257.587	11.32
257.849	12.21
258.11	15.91
258.372	17.02
258.633	18.67
258.895	16.07
259.156	14.18
259.418	11.21
259.679	7.06
259.941	5.93
260.202	7.84
260.464	11.24
260.725	11.45
260.987	11.78
261.248	10.67
261.509	10.96
261.771	10.39
262.032	11.73
262.293	11.73
262.555	11.89
262.816	9.44
263.077	7.21
263.338	4.64
263.6	5.21
263.861	4.73
264.122	4.39
264.383	6.08
264.645	6.74
264.906	4.88
265.167	6.85
265.428	6.43
265.689	6.57
265.95	2.29
266.211	3.41
266.473	3.64
266.734	1.56
266.995	-1.2
267.256	0.87
267.517	4.31
267.778	6.52
268.039	8.37
268.3	6.6
268.561	3.84
268.822	7.11
269.083	5.4
269.344	4.62
269.604	4.79
269.865	5
270.126	1.98
270.387	1.9
270.648	2.66
270.909	3.28
271.17	2.31
271.43	-0.09
271.691	-4.45
271.952	-5.17
272.213	-4.29
272.473	-6.88
272.734	-5.76
272.995	-3.52
273.256	-3.5
273.516	-0.61
273.777	-2.66
274.038	1.95
274.298	-0.49
274.559	-0.61
274.82	3.78
275.08	6.78
275.341	7.52
275.601	5.92
275.862	4.06
276.122	3.54
276.383	3.81
276.643	6.14
276.904	4.53
277.164	7.91
277.425	8.09
277.685	12.01
277.946	12.5
278.206	13.75
278.467	15.82
278.727	17.04
278.987	17.12
279.248	16.89
279.508	19.05
279.768	23.43
280.029	24.59
280.289	22.19
280.549	21.54
280.81	20.66
281.07	20.15
281.33	21.06
281.59	19.26
281.851	20.86
282.111	19.39
282.371	18.38
282.631	18.02
282.891	15.39
283.151	14.17
283.412	12.96
283.672	11.75
283.932	11.81
284.192	12.73
284.452	10.92
284.712	8.83
284.972	6.82
285.232	4.57
285.492	8.33
285.752	6.4
286.012	11.85
286.272	12.23
286.532	9.92
286.792	8.67
287.052	9.54
287.312	11.22
287.571	9.2
287.831	9.09
288.091	6.72
288.351	7.1
288.611	12.15
288.871	13.6
289.13	11.77
289.39	8.35
289.65	9.35
289.91	6.93
290.17	9.81
290.429	12.99
290.689	12.47
290.949	8.88
291.208	9.32
291.468	11.51
291.728	13.73
291.987	15.78
292.247	14.38
292.506	17.78
292.766	20.59
293.026	20.58
293.285	21.69
293.545	23.47
293.804	22.74
294.064	18.19
294.323	17.57
294.583	17.63
294.842	17.01
295.102	17.38
295.361	16.81
295.621	18.22
295.88	17.71
296.139	17.99
296.399	18.94
296.658	13.47
296.917	11.86
297.177	9.49
297.436	10.32
297.695	7.55
297.955	9.84
298.214	6.47
298.473	7.82
298.732	9.37
298.992	13.06
299.251	11.68
299.51	8.66
299.769	9.4
300.028	9.22
300.287	10.36
300.547	9.86
300.806	7.41
301.065	10.91
301.324	11.91
301.583	8.23
301.842	4.5
302.101	4.39
302.36	4.61
302.619	5.54
302.878	6.64
303.137	5.34
303.396	6.67
303.655	8.11
303.914	5.41
304.173	4.84
304.432	4.57
304.691	6.88
304.95	4.7
305.208	10.24
305.467	12.25
305.726	12.53
305.985	12.59
306.244	14.35
306.503	12.58
306.761	9.96
307.02	7.97
307.279	8.92
307.537	9.23
307.796	5.17
308.055	3.33
308.314	3.46
308.572	1.39
308.831	3.11
309.09	1.73
309.348	2.26
309.607	1
309.865	5.13
310.124	3.9
310.382	6.22
310.641	5.99
310.9	5.38
311.158	6.35
311.417	6.27
311.675	6.38
311.933	7.77
312.192	9.72
312.45	10.76
312.709	11.04
312.967	10.91
313.226	9.41
313.484	7.46
313.742	5.75
314.001	3.62
314.259	2.01
314.517	2.71
314.776	5.22
315.034	7.84
315.292	5.92
315.55	4.84
315.809	4.61
316.067	4.05
316.325	2.99
316.583	4.46
316.841	2.91
317.1	1.94
317.358	-0.44
317.616	-1.36
317.874	-2.73
318.132	-2.77
318.39	-4.47
318.648	-4.6
318.906	-4.79
319.164	-7.14
319.422	-8.1
319.68	-10.66
319.938	-9.85
320.196	-9.56
320.454	-8.56
320.712	-9.13
320.97	-9.41
321.228	-10.56
321.486	-8.62
321.744	-5.96
322.002	-3.39
322.26	-5.06
322.517	-5.64
322.775	-8.59
323.033	-10.56
323.291	-6.98
323.549	-6.02
323.806	-4.55
324.064	-3.16
324.322	-1.45
324.58	-2.6
324.837	0.54
325.095	-2
325.353	0.24
325.61	2.6
325.868	2.84
326.126	4.88
326.383	3.73
326.641	0.65
326.898	1.83
327.156	3.77
327.413	3.32
327.671	4.58
327.928	5.62
328.186	4.73
328.443	2.39
328.701	5.95
328.958	8.08
329.216	9.11
329.473	8.23
329.731	8.71
329.988	7.51
330.245	10.23
330.503	12.71
330.76	14.29
331.017	16.62
331.275	13.17
331.532	14.66
331.789	13.56
332.047	12.47
332.304	10.18
332.561	11.76
332.818	9.11
333.076	11.2
333.333	10.67
333.59	10.82
333.847	12.25
334.104	10.95
334.361	10.29
334.618	11.2
334.876	9.82
335.133	9.27
335.39	7.6
335.647	9.06
335.904	6.24
336.161	5.42
336.418	6.85
336.675	2.28
336.932	3.04
337.189	3.18
337.446	1.87
337.703	1.09
337.96	-1.97
338.216	-0.83
338.473	-5.49
338.73	-5.68
338.987	-5.79
339.244	-1.89
339.501	-4.36
339.757	-2.77
340.014	-1.73
340.271	-1.73
340.528	-1.58
340.785	2.74
341.041	3.21
341.298	1.17
341.555	0.61
341.811	-0.62
342.068	-3.12
342.325	-1.99
342.581	2.26
342.838	3.1
343.094	2.49
343.351	2.03
343.608	-0.4
343.864	2.13
344.121	2.93
344.377	1.81
344.634	1.85
344.89	1.61
345.147	0.44
345.403	0.26
345.66	-0.63
345.916	1.56
346.172	-1.03
346.429	-1.14
346.685	-1.64
346.942	-2.05
347.198	-6.4
347.454	-4.85
347.711	-5.1
347.967	-7.87
348.223	-6.55
348.48	-7.26
348.736	-4.23
348.992	-4.83
349.248	-2.05
349.504	-1.95
349.761	-2.01
350.017	-0.87
350.273	-1.19
350.529	-4.08
350.785	-4.76
351.041	-4.84
351.297	-1.49
351.554	-2.61
351.81	-4.5
352.066	-6.07
352.322	-6.3
352.578	-3.91
352.834	-5.24
353.09	-4.73
353.346	-4.95
353.602	-6.02
353.858	-6.58
354.114	-7.16
354.369	-5.32
354.625	-3.42
354.881	-4.72
355.137	-2.35
355.393	-3.13
355.649	-3.48
355.905	-3.16
356.16	-3.2
356.416	-2.51
356.672	-8.88
356.928	-8.56
357.183	-9.89
357.439	-9.64
357.695	-11.17
357.951	-7.51
358.206	-7.35
358.462	-6.99
358.718	-8.77
358.973	-7.74
359.229	-8.77
359.484	-7.17
359.74	-5.08
359.996	-3.19
360.251	-0.13
360.507	-2.62
360.762	-2.92
361.018	-1.44
361.273	-3.47
361.529	-2
361.784	-2.17
362.04	-0.66
362.295	-1.04
362.55	-1.72
362.806	0.73
363.061	1.6
363.316	2.69
363.572	4.3
363.827	6.5
364.082	3.45
364.338	3.7
364.593	3.55
364.848	5.15
365.104	3.18
365.359	5.69
365.614	6.78
365.869	5.02
366.124	5.31
366.38	4.01
366.635	5.26
366.89	6.48
367.145	6.42
367.4	9.7
367.655	10.33
367.91	10.87
368.165	8.98
368.42	7.6
368.675	9.36
368.93	10.59
369.185	9.82
369.44	9.97
369.695	13.79
369.95	12.07
370.205	11.95
370.46	10.57
370.715	9.78
370.97	10.29
371.225	8.92
371.48	9.38
371.734	9.66
371.989	11.35
372.244	9.56
372.499	10.3
372.754	8.77
373.008	8.15
373.263	3.42
373.518	5.7
373.773	3.07
374.027	1.48
374.282	4.19
374.537	5.95
374.791	6.79
375.046	6.27
375.301	3.9
375.555	1.96
375.81	2.09
376.064	3.14
376.319	6.94
376.573	6.53
376.828	2.83
377.082	8.32
377.337	6.57
377.591	2.37
377.846	4.12
378.1	6.29
378.355	7.97
378.609	6.89
378.863	3.4
379.118	5.92
379.372	3.88
379.627	2.55
379.881	1.95
380.135	3.45
380.389	4.92
380.644	4.44
380.898	5.71
381.152	7.07
381.407	6.01
381.661	8.69
381.915	10
382.169	10.03
382.423	8.52
382.677	5.3
382.932	5
383.186	6.14
383.44	6.98
383.694	8.59
383.948	6.89
384.202	5.4
384.456	6.4
384.71	6.94
384.964	5.12
385.218	6.8
385.472	8.81
385.726	8.06
385.98	7.6
386.234	5.86
386.488	3.51
386.742	4.89
386.996	1.57
387.249	4.02
387.503	5.69
387.757	6.3
388.011	6.87
388.265	5.91
388.518	8.71
388.772	10.39
389.026	12.89
389.28	11.01
389.533	9.78
389.787	12.24
390.041	10.01
390.295	9.44
390.548	8.61
390.802	12.64
391.055	10.52
391.309	9.55
391.563	6.62
391.816	6.55
392.07	5.32
392.323	5.86
392.577	7
392.83	7.77
393.084	12.93
393.337	15.28
393.591	15.71
393.844	16.28
394.098	21.06
394.351	25.22
394.604	27.96
394.858	29.72
395.111	28.63
395.364	26.65
395.618	28.06
395.871	27.18
396.124	25.63
396.378	23.81
396.631	23.6
396.884	19.88
397.137	20.41
397.391	20.88
397.644	17.9
397.897	18.23
398.15	19.85
398.403	23.91
398.657	21.4
398.91	20.69
399.163	21.89
399.416	22.36
399.669	22.66
399.922	21.4
400.175	20.66
400.428	20
400.681	20.15
400.934	16.97
401.187	14.97
401.44	14.1
401.693	11.77
401.946	7.72
402.199	3.03
402.452	1.9
402.704	-0.2
402.957	0.06
403.21	1.89
403.463	2.46
403.716	2.39
403.969	3.34
404.221	2.94
404.474	3.99
404.727	7.42
404.98	9.99
405.232	10.41
405.485	12.4
405.738	14.8
405.99	14.7
406.243	15.93
406.496	18.35
406.748	18.95
407.001	17.41
407.253	18.28
407.506	17.39
407.759	19.69
408.011	17.72
408.264	18.35
408.516	18.18
408.769	15.74
409.021	17.93
409.274	18.49
409.526	20.34
409.778	20.17
410.031	23.76
410.283	23.07
410.536	28.16
410.788	25.97
411.04	25.21
411.293	26.6
411.545	27.21
411.797	26.45
412.049	25.62
412.302	27
412.554	28.14
412.806	25.89
413.058	23.94
413.311	23.7
413.563	22.13
413.815	21.85
414.067	18.61
414.319	17.1
414.571	18.32
414.823	18.59
415.075	17.01
415.328	18.81
415.58	20.77
415.832	20.79
416.084	21.84
416.336	20.51
416.588	23.95
416.84	21.36
417.091	23.81
417.343	20.86
417.595	23.09
417.847	23.55
418.099	24.77
418.351	23.42
418.603	26.23
418.855	27.31
419.106	25.62
419.358	25.22
419.61	25.71
419.862	27.57
420.114	24.42
420.365	22.58
420.617	22.18
420.869	20.83
421.12	19.93
421.372	20.8
421.624	20.03
421.875	19.31
422.127	16.23
422.379	15.84
422.63	16.62
422.882	16.42
423.133	14.83
423.385	15.51
423.636	16.28
423.888	17.46
424.139	18.5
424.391	15.78
424.642	14.64
424.894	13.05
425.145	12.97
425.396	10.67
425.648	12.48
425.899	10.48
426.151	11.26
426.402	9.54
426.653	9.77
426.905	8.17
427.156	6.26
427.407	6.18
427.658	5.36
427.91	4.26
428.161	4.23
428.412	6.8
428.663	8.68
428.914	10.46
429.166	11.68
429.417	12.42
429.668	12.31
429.919	10.09
430.17	10.17
430.421	10.46
430.672	14.31
430.923	14.02
431.174	11.52
431.425	11.59
431.676	11.97
431.927	10.25
432.178	12.21
432.429	13.02
432.68	13.17
432.931	15.51
433.182	18.04
433.433	14.72
433.683	17.18
433.934	16.46
434.185	15.45
434.436	13.94
434.687	15.58
434.937	18.64
435.188	17.7
435.439	16.25
435.69	18.36
435.94	17.67
436.191	18.7
436.442	17.76
436.692	15.75
436.943	13
437.194	11.46
437.444	13.65
437.695	18.12
437.945	18.79
438.196	17.47
438.447	14.94
438.697	17.26
438.948	17.8
439.198	15.06
439.449	9.15
439.699	10.32
439.949	9.35
440.2	8.55
440.45	8.65
440.701	7.97
440.951	6.69
441.201	7.88
441.452	5.64
441.702	4.49
441.952	5.53
442.203	5.79
442.453	4.32
442.703	3.75
442.953	4.93
443.204	6.43
443.454	3.19
443.704	3.87
443.954	0.01
444.204	2.44
444.455	4.7
444.705	5.13
444.955	7.4
445.205	6.51
445.455	3.77
445.705	3.27
445.955	3.28
446.205	4.12
446.455	5.13
446.705	5.7
446.955	7.74
447.205	11.34
447.455	13.2
447.705	11.34
447.955	10.92
448.205	12.88
448.454	13.08
448.704	15.43
448.954	14.72
449.204	16.77
449.454	17.59
449.704	16.47
449.953	17.39
450.203	20.86
450.453	19.42
450.703	20.21
450.952	19.57
451.202	22.32
451.452	22.21
451.701	25.04
451.951	27.74
452.201	26.86
452.45	28.99
452.7	29.88
452.949	29.86
453.199	30.91
453.448	33.39
453.698	35.52
453.947	33.99
454.197	31.62
454.446	30.33
454.696	32.95
454.945	32.3
455.195	31.13
455.444	32.87
455.693	36.38
455.943	33.36
456.192	35.27
456.442	33.94
456.691	33.82
456.94	32.01
457.189	30.33
457.439	32.62
457.688	34.11
457.937	32.69
458.186	33.25
458.436	34.09
458.685	34.46
458.934	33.7
459.183	33.76
459.432	36.43
459.681	37.32
459.93	37.04
460.179	35.41
460.429	33.42
460.678	35.87
460.927	39.27
461.176	37.81
461.425	37.8
461.674	39.67
461.923	40.36
462.172	39.82
462.42	38.65
462.669	41.83
462.918	41.73
463.167	41.37
463.416	38.33
463.665	39.31
463.914	38.7
464.162	38.28
464.411	38.68
464.66	40.18
464.909	38.97
465.158	39.58
465.406	38.13
465.655	39.08
465.904	40.3
466.152	40.23
466.401	41.08
466.65	42.45
466.898	41.54
467.147	37.62
467.395	34.79
467.644	35.26
467.893	34.76
468.141	34.56
468.39	31.78
468.638	29.67
468.887	28.75
469.135	27.92
469.384	28.65
469.632	29.93
469.88	29.5
470.129	30.61
470.377	26.78
470.626	28.59
470.874	29.9
471.122	31.73
471.371	29.94
471.619	29.87
471.867	30.65
472.115	31.25
472.364	28.82
472.612	33.24
472.86	32.05
473.108	31.69
473.356	30.79
473.605	30.67
473.853	28.95
474.101	29.03
474.349	28.12
474.597	30.38
474.845	29.26
475.093	28.45
475.341	27.17
475.589	27.89
475.837	28.67
476.085	30.66
476.333	26.93
476.581	27.85
476.829	27.37
477.077	28.84
477.325	27.51
477.573	28.04
477.821	26.99
478.069	28.5
478.317	27.12
478.564	28.63
478.812	26.26
479.06	25.91
479.308	24.35
479.555	25.38
479.803	24.15
480.051	26.05
480.299	24.51
480.546	23.91
480.794	22.43
481.042	23.95
481.289	23.51
481.537	24.16
481.784	22.6
482.032	24.34
482.28	23.05
482.527	22.94
482.775	23.49
483.022	24.07
483.27	24.78
483.517	27.72
483.765	26.78
484.012	28.48
484.259	26.36
484.507	28.14
484.754	28.29
485.002	28.08
485.249	28.31
485.496	30.64
485.744	29.9
485.991	30.06
486.238	28.85
486.486	33.07
486.733	34.16
486.98	36.38
487.227	33.45
487.474	34.88
487.722	37.41
487.969	35.05
488.216	35.25
488.463	36.21
488.71	34.27
488.957	32.84
489.204	33.45
489.451	35.36
489.699	36.14
489.946	33.79
490.193	33.59
490.44	33.65
490.687	34.48
490.934	32.54
491.18	28.86
491.427	29.16
491.674	31.34
491.921	32.34
492.168	30.84
492.415	27.23
492.662	27.87
492.909	30.35
493.155	29.14
493.402	27.61
493.649	26.09
493.896	25.89
494.142	22.6
494.389	23.18
494.636	21.16
494.883	20.91
495.129	19.53
495.376	17.88
495.623	20.05
495.869	22.52
496.116	24.09
496.362	24.84
496.609	27.94
496.855	31.43
497.102	31.55
497.348	30.49
497.595	31.85
497.841	35.77
498.088	33.62
498.334	32.63
498.581	31.48
498.827	32.44
499.074	34.44
499.32	36.17
499.566	39.27
499.813	40.27
500.059	39.51
500.305	39.21
500.552	37.62
500.798	36.77
501.044	40.33
501.29	39.31
501.537	37.67
501.783	39.16
502.029	41.56
502.275	39.57
502.521	37.44
502.767	38.09
503.013	40.04
503.26	37.64
503.506	33.54
503.752	34.52
503.998	34.14
504.244	34.08
504.49	30.64
504.736	30.83
504.982	29.24
505.228	31.4
505.474	31.01
505.72	33.42
505.966	32.74
506.211	35.78
506.457	35.52
506.703	31.62
506.949	29.9
507.195	28.09
507.441	24.75
507.686	28.81
507.932	29.31
508.178	32.26
508.424	29.44
508.669	28.06
508.915	29.1
509.161	31.14
509.406	31.59
509.652	30.23
509.898	33.96
510.143	36.89
510.389	36.93
510.634	34.14
510.88	37.54
511.125	39.87
511.371	39.75
511.616	39.34
511.862	36.96
512.107	34.95
512.353	35.11
512.598	36.7
512.844	34.92
513.089	33.75
513.335	33.86
513.58	34.58
513.825	35.37
514.071	34.31
514.316	34.63
514.561	36.5
514.806	36.32
515.052	38.65
515.297	36.58
515.542	38.15
515.787	36.73
516.033	40.3
516.278	39.85
516.523	39.26
516.768	37.47
517.013	35.29
517.258	35.88
517.503	34.56
517.748	33.9
517.993	32.42
518.238	32.46
518.483	30.05
518.728	28.61
518.973	26.43
519.218	26.78
519.463	28.16
519.708	27.94
519.953	26.93
520.198	26.79
520.443	29.81
520.688	31.56
520.933	30.87
521.177	30.71
521.422	28.14
521.667	30.26
521.912	30.28
522.157	25.57
522.401	27.12
522.646	27.17
522.891	27.38
523.135	26.56
523.38	27.09
523.625	24.9
523.869	27.95
524.114	28.58
524.358	28.37
524.603	28.39
524.848	25.28
525.092	24.75
525.337	26.04
525.581	29.18
525.826	30.89
526.07	32.35
526.315	34.74
526.559	34.14
526.803	33.38
527.048	36.34
527.292	36.57
527.537	35.81
527.781	35.04
528.025	29.7
528.269	30.87
528.514	31.09
528.758	30.54
529.002	30.65
529.247	33.28
529.491	33.88
529.735	38.7
529.979	38.84
530.223	40.42
530.467	37.27
530.712	35.21
530.956	33.98
531.2	35.36
531.444	31.5
531.688	34.2
531.932	34.16
532.176	35.43
532.42	37.04
532.664	38.16
532.908	36.22
533.152	33.66
533.396	32.91
533.64	30.83
533.884	29.7
534.128	29.89
534.371	31.15
534.615	32.03
534.859	32.42
535.103	32.98
535.347	33.45
535.59	35.8
535.834	32.45
536.078	33.84
536.322	36.35
536.565	39.52
536.809	38.56
537.053	40.28
537.296	37.99
537.54	36.49
537.784	35.29
538.027	38.04
538.271	37.63
538.514	36.94
538.758	36.14
539.001	35.6
539.245	34.85
539.488	35.99
539.732	37.43
539.975	38.11
540.219	40.9
540.462	41.52
540.706	43.57
540.949	43.5
541.192	45.34
541.436	50.11
541.679	55.23
541.922	55.84
542.166	50.63
542.409	50.86
542.652	51.74
542.895	52.58
543.139	53.71
543.382	57.73
543.625	57.92
543.868	57.03
544.111	55.71
544.354	53.2
544.598	51.85
544.841	52.33
545.084	52.54
545.327	53.79
545.57	55.15
545.813	57.52
546.056	57.29
546.299	59.36
546.542	61.27
546.785	62.89
547.028	63.23
547.271	62.14
547.514	61.46
547.756	57.36
547.999	58.43
548.242	59.45
548.485	58.7
548.728	59.28
548.971	53.45
549.213	53.62
549.456	52.54
549.699	53.21
549.942	53.46
550.184	52.56
550.427	51.53
550.67	51.61
550.912	45.59
551.155	46.32
551.398	45.47
551.64	44.99
551.883	46.36
552.125	45.09
552.368	45.51
552.61	43.82
552.853	44.33
553.095	43.24
553.338	42.02
553.58	43.04
553.823	40.17
554.065	43.17
554.308	39.53
554.55	37.85
554.792	36.81
555.035	35.7
555.277	35.44
555.519	36.31
555.762	33.68
556.004	32.95
556.246	28.97
556.488	30.78
556.731	27.13
556.973	28.48
557.215	28.14
557.457	28.92
557.699	30.39
557.941	28.88
558.183	28.8
558.426	32.54
558.668	28.98
558.91	31.3
559.152	30.69
559.394	28.46
559.636	31.57
559.878	31.53
560.12	30.84
560.362	31.67
560.604	31.33
560.845	30.96
561.087	30.17
561.329	32.72
561.571	30.61
561.813	31.76
562.055	31.21
562.297	31.9
