Data from FLMT021711__1__17-53-21-184.txt Node

Date: Tue Nov 05 17:53:21 CET 2024
User: Etudiants TP
Spectrometer: FLMT02171
Trigger mode: 0
Integration Time (sec): 1.000000E-1
Scans to average: 5
Electric dark correction enabled: true
Nonlinearity correction enabled: false
Boxcar width: 15
XAxis mode: Wavelengths
Number of Pixels in Spectrum: 3648
>>>>>Begin Spectral Data<<<<<
194.658	-64.81
194.923	-60.13
195.188	-52.33
195.453	-51.18
195.717	-44.57
195.982	-44.68
196.247	-42.14
196.512	-43.63
196.777	-40.17
197.042	-38.5
197.307	-39.92
197.572	-35.82
197.837	-35.93
198.101	-33.03
198.366	-30.65
198.631	-28.92
198.896	-22.69
199.161	-16.83
199.425	-9.49
199.69	1.78
199.955	1.59
200.22	-1.6
200.484	-3.8
200.749	-4.29
201.014	-4.17
201.278	-3
201.543	-0.12
201.807	0.4
202.072	0.32
202.337	0.44
202.601	0.76
202.866	-0.79
203.13	0.09
203.395	-3.78
203.659	-4.47
203.924	-8.32
204.189	-7.37
204.453	-6.15
204.717	-2.8
204.982	-3.48
205.246	-1.62
205.511	1.06
205.775	0.59
206.04	5.45
206.304	5.38
206.568	7.66
206.833	7.3
207.097	7.9
207.361	9.57
207.626	11.91
207.89	11.68
208.154	12.44
208.419	14.22
208.683	15.91
208.947	19.27
209.211	20.08
209.476	18.4
209.74	18.08
210.004	17.8
210.268	18.9
210.532	21.68
210.796	22.79
211.061	23.34
211.325	22.87
211.589	22.88
211.853	24.62
212.117	25.67
212.381	26.87
212.645	26.48
212.909	25.5
213.173	23.23
213.437	23.21
213.701	24.24
213.965	24.83
214.229	19.33
214.493	19.74
214.757	18.88
215.021	20.51
215.285	24.36
215.549	27.14
215.813	25.38
216.077	25.01
216.34	27.08
216.604	26.13
216.868	25.6
217.132	24.82
217.396	23.93
217.659	23.76
217.923	19.61
218.187	19.49
218.451	19.73
218.714	17.69
218.978	16.49
219.242	18.98
219.505	18.71
219.769	20.25
220.033	19.52
220.296	21.05
220.56	22.23
220.824	19.87
221.087	20.37
221.351	20.87
221.614	19.82
221.878	21.75
222.142	19.98
222.405	21.96
222.669	22.3
222.932	17.97
223.196	14.48
223.459	11.15
223.722	11.89
223.986	11.12
224.249	10.37
224.513	10.3
224.776	11.11
225.04	10.94
225.303	10.69
225.566	10.53
225.83	13.81
226.093	16.74
226.356	15.36
226.62	12.15
226.883	14.76
227.146	15.91
227.409	15.11
227.673	14.29
227.936	13.53
228.199	14.18
228.462	11.62
228.725	9.02
228.989	9.59
229.252	10.7
229.515	16.12
229.778	14.39
230.041	12.1
230.304	10.08
230.567	10.18
230.83	8.88
231.093	11.68
231.356	11.97
231.619	17.39
231.882	15.72
232.145	17.06
232.408	15.41
232.671	15.04
232.934	13.87
233.197	13.13
233.46	13.11
233.723	14.12
233.986	11.25
234.249	9.9
234.512	13.11
234.775	17.18
235.037	16.15
235.3	16.63
235.563	16.57
235.826	17.27
236.089	18.99
236.351	17.7
236.614	22.42
236.877	24.88
237.14	27.07
237.402	25.96
237.665	18.8
237.928	18.97
238.19	16.94
238.453	19.63
238.716	19.01
238.978	19.57
239.241	18.19
239.503	20.44
239.766	15.53
240.029	14.06
240.291	17.58
240.554	19.72
240.816	18.1
241.079	18.53
241.341	18.83
241.604	18.28
241.866	16.31
242.129	18.25
242.391	20.2
242.653	18.31
242.916	17.57
243.178	16.47
243.441	17.06
243.703	15.01
243.965	12.44
244.228	12.67
244.49	13.72
244.752	12.63
245.015	12.1
245.277	13.11
245.539	12.17
245.801	14.66
246.064	14.79
246.326	14.51
246.588	15.16
246.85	17.43
247.112	18.31
247.374	20.17
247.637	21.8
247.899	21.46
248.161	20.12
248.423	16.02
248.685	16.25
248.947	16.8
249.209	16.51
249.471	16.91
249.733	16.84
249.995	15.94
250.257	14.69
250.519	13.62
250.781	16.14
251.043	13.65
251.305	16.2
251.567	16.16
251.829	17.35
252.091	17.69
252.353	13.9
252.615	14.61
252.876	13.06
253.138	11.11
253.4	7.2
253.662	8.15
253.924	10.6
254.185	12.06
254.447	12.18
254.709	11.39
254.971	11.48
255.232	12.52
255.494	11.8
255.756	10.45
256.017	10.85
256.279	13.66
256.541	12.59
256.802	11.77
257.064	11.55
257.326	11.43
257.587	12.83
257.849	14.51
258.11	17.45
258.372	18.83
258.633	19.39
258.895	18.26
259.156	16.94
259.418	14.85
259.679	11.26
259.941	9.05
260.202	12.32
260.464	14.74
260.725	13.14
260.987	11.86
261.248	12.2
261.509	13.39
261.771	12.27
262.032	13.19
262.293	11.81
262.555	13.13
262.816	11.56
263.077	11.12
263.338	8.57
263.6	8.52
263.861	7.77
264.122	7.01
264.383	7.67
264.645	9.41
264.906	7.44
265.167	9.18
265.428	9.08
265.689	8.65
265.95	6.16
266.211	6.47
266.473	5.41
266.734	3.08
266.995	-0.63
267.256	2.16
267.517	4.6
267.778	8.55
268.039	11.23
268.3	9.6
268.561	8.22
268.822	10.95
269.083	9.64
269.344	8.39
269.604	8.02
269.865	9.13
270.126	4.25
270.387	5.99
270.648	5.89
270.909	6.12
271.17	4.39
271.43	0.99
271.691	-2.04
271.952	-3.17
272.213	-0.74
272.473	-2.66
272.734	-1.41
272.995	0.1
273.256	-0.15
273.516	2.35
273.777	0.78
274.038	1.82
274.298	-0.96
274.559	-2.86
274.82	0.76
275.08	4.34
275.341	5.52
275.601	4.09
275.862	2.27
276.122	2.48
276.383	2.5
276.643	4.66
276.904	3.51
277.164	6.22
277.425	5.36
277.685	9.33
277.946	8.44
278.206	10.43
278.467	11.77
278.727	12.48
278.987	11.93
279.248	11.62
279.508	14.08
279.768	16.53
280.029	18.74
280.289	15.88
280.549	14.84
280.81	14.83
281.07	14.74
281.33	15.51
281.59	12.83
281.851	15.17
282.111	14.79
282.371	13.69
282.631	16.49
282.891	15.97
283.151	13.99
283.412	11.57
283.672	10.62
283.932	10.62
284.192	12.5
284.452	10.45
284.712	8.14
284.972	6.68
285.232	4.35
285.492	6.91
285.752	4.17
286.012	11.26
286.272	13.14
286.532	10.89
286.792	10.09
287.052	12.1
287.312	13.1
287.571	11.19
287.831	11.78
288.091	8.31
288.351	8.23
288.611	11.46
288.871	10.88
289.13	10.63
289.39	7.3
289.65	9.1
289.91	7.66
290.17	10.04
290.429	13.03
290.689	10.89
290.949	7.26
291.208	7.64
291.468	11.5
291.728	12.19
291.987	14.16
292.247	10.98
292.506	14.6
292.766	16.87
293.026	16.56
293.285	18.75
293.545	22.41
293.804	22.06
294.064	18.01
294.323	15.25
294.583	15.02
294.842	15.21
295.102	14.46
295.361	13.89
295.621	15.63
295.88	14.92
296.139	15.95
296.399	16.55
296.658	12.66
296.917	10.96
297.177	8.4
297.436	9.8
297.695	8.2
297.955	9.13
298.214	7.51
298.473	7.73
298.732	10.59
298.992	14.18
299.251	14.99
299.51	11.62
299.769	12.29
300.028	11.45
300.287	13.4
300.547	11.51
300.806	8.49
301.065	11.19
301.324	11.88
301.583	6.67
301.842	3.7
302.101	2.01
302.36	3.04
302.619	2.55
302.878	3.99
303.137	3.45
303.396	5.23
303.655	7.93
303.914	5.99
304.173	5.31
304.432	4.77
304.691	8.09
304.95	6.58
305.208	11.22
305.467	12.17
305.726	12.17
305.985	12.25
306.244	13.39
306.503	14.7
306.761	11.84
307.02	7.2
307.279	7.51
307.537	7.7
307.796	4.65
308.055	2.64
308.314	3.39
308.572	2.94
308.831	4.51
309.09	5.11
309.348	5.78
309.607	6.08
309.865	10.9
310.124	9.21
310.382	9.23
310.641	10.55
310.9	8.49
311.158	8.03
311.417	7.93
311.675	6.49
311.933	6.48
312.192	8.81
312.45	9.51
312.709	8.78
312.967	9.35
313.226	9.53
313.484	9.17
313.742	8.94
314.001	7.49
314.259	5.95
314.517	6.72
314.776	9.04
315.034	13.6
315.292	11.56
315.55	10.51
315.809	10.25
316.067	11.25
316.325	9.02
316.583	10.16
316.841	10.05
317.1	7.16
317.358	4.34
317.616	4.59
317.874	1.34
318.132	1.42
318.39	1.6
318.648	1.14
318.906	0.91
319.164	0.4
319.422	-1.58
319.68	-2.2
319.938	-0.23
320.196	-0.77
320.454	-0.55
320.712	-0.47
320.97	-0.11
321.228	-2.66
321.486	-0.74
321.744	-0.07
322.002	1.85
322.26	0.55
322.517	-1.12
322.775	-3.17
323.033	-6.17
323.291	-4.85
323.549	-3.41
323.806	-0.6
324.064	-0.17
324.322	1.7
324.58	0.72
324.837	2.2
325.095	0.64
325.353	1.78
325.61	3.72
325.868	3.62
326.126	5.26
326.383	4.11
326.641	2.51
326.898	3.84
327.156	3.9
327.413	4.97
327.671	5.25
327.928	6.8
328.186	6.9
328.443	5.66
328.701	8.74
328.958	9
329.216	9.61
329.473	6.82
329.731	6.29
329.988	5.78
330.245	8.41
330.503	10.12
330.76	9.78
331.017	12.25
331.275	11.28
331.532	11.31
331.789	8.66
332.047	8.48
332.304	5.26
332.561	6.35
332.818	4.2
333.076	7
333.333	8.29
333.59	7
333.847	9.1
334.104	8.68
334.361	8.79
334.618	8.79
334.876	7.01
335.133	7.34
335.39	4.98
335.647	6.04
335.904	2.6
336.161	1.06
336.418	2.38
336.675	-2.15
336.932	-0.2
337.189	-0.59
337.446	0.29
337.703	-0.1
337.96	-3.67
338.216	-4.72
338.473	-7.66
338.73	-7.03
338.987	-6.93
339.244	-4.78
339.501	-6.4
339.757	-4.96
340.014	-4.27
340.271	-3.52
340.528	-3.3
340.785	1.7
341.041	1.95
341.298	-1.03
341.555	-0.07
341.811	-0.91
342.068	-3.29
342.325	-3.59
342.581	0.02
342.838	1.06
343.094	0.46
343.351	1.58
343.608	-1.8
343.864	1.17
344.121	2.12
344.377	3
344.634	2.03
344.89	0.47
345.147	0.26
345.403	-1.17
345.66	-1.02
345.916	1.36
346.172	0.43
346.429	-0.99
346.685	-2.26
346.942	-2.23
347.198	-5.8
347.454	-5.93
347.711	-5.64
347.967	-8.65
348.223	-7.89
348.48	-9.11
348.736	-7.35
348.992	-8.18
349.248	-5.62
349.504	-5.55
349.761	-6.4
350.017	-6.05
350.273	-4.79
350.529	-6.01
350.785	-6.82
351.041	-6.14
351.297	-5.33
351.554	-5.99
351.81	-8.74
352.066	-10.23
352.322	-11.9
352.578	-9.76
352.834	-11.16
353.09	-11.57
353.346	-11.23
353.602	-12.39
353.858	-12.16
354.114	-12.56
354.369	-10.89
354.625	-8.03
354.881	-9.44
355.137	-6.97
355.393	-6.85
355.649	-7.03
355.905	-5.66
356.16	-4.86
356.416	-3.39
356.672	-9.98
356.928	-8.8
357.183	-9.69
357.439	-9.9
357.695	-10.21
357.951	-5.45
358.206	-7.19
358.462	-7.62
358.718	-9.12
358.973	-8.98
359.229	-7.7
359.484	-6.6
359.74	-3.64
359.996	-1.95
360.251	1.87
360.507	2.16
360.762	2.59
361.018	4.87
361.273	2.73
361.529	4.94
361.784	3.65
362.04	5.57
362.295	5.87
362.55	5.55
362.806	7.33
363.061	8.84
363.316	10.43
363.572	10.97
363.827	11.41
364.082	7.49
364.338	7.21
364.593	8.02
364.848	7.96
365.104	8.53
365.359	10.44
365.614	10.26
365.869	7.53
366.124	8.74
366.38	7.28
366.635	10.22
366.89	11.81
367.145	10.05
367.4	14.42
367.655	13.66
367.91	13.97
368.165	11.16
368.42	8.23
368.675	9.16
368.93	8.71
369.185	7.18
369.44	5.95
369.695	8.45
369.95	7.2
370.205	6.03
370.46	5.08
370.715	4.15
370.97	4.37
371.225	3.84
371.48	4.55
371.734	5.71
371.989	8.01
372.244	7.18
372.499	8.01
372.754	6.81
373.008	2.39
373.263	-1.92
373.518	1.98
373.773	0.82
374.027	-1.15
374.282	-0
374.537	-0.03
374.791	2.24
375.046	1.59
375.301	-0.91
375.555	-2.12
375.81	-1.75
376.064	-0.67
376.319	2.7
376.573	1.48
376.828	-1.2
377.082	4.67
377.337	3.2
377.591	0.87
377.846	2.18
378.1	4.57
378.355	5.51
378.609	5.61
378.863	2.78
379.118	2.94
379.372	2.08
379.627	0.53
379.881	-0.14
380.135	-0.14
380.389	0.49
380.644	1.15
380.898	3.24
381.152	4.72
381.407	3.1
381.661	6.11
381.915	8.22
382.169	8.59
382.423	6.96
382.677	2.52
382.932	3.67
383.186	5.04
383.44	6.09
383.694	9.21
383.948	6.98
384.202	6.49
384.456	9.62
384.71	12.37
384.964	10.71
385.218	12.83
385.472	12.93
385.726	12.25
385.98	11.51
386.234	10.01
386.488	8.82
386.742	9.67
386.996	9.47
387.249	10.99
387.503	13.12
387.757	13.56
388.011	14.42
388.265	13.74
388.518	13.87
388.772	16.46
389.026	16.96
389.28	14.82
389.533	11.83
389.787	14.7
390.041	12.71
390.295	12.92
390.548	12.6
390.802	14.79
391.055	13.53
391.309	12.66
391.563	10.08
391.816	11.23
392.07	9.66
392.323	10.04
392.577	10.89
392.83	10.82
393.084	15.93
393.337	20.46
393.591	20.38
393.844	20.09
394.098	23.08
394.351	25.22
394.604	26.53
394.858	27.39
395.111	26.63
395.364	24.3
395.618	25.51
395.871	23.5
396.124	23.59
396.378	23.9
396.631	24.15
396.884	22.24
397.137	23.12
397.391	23.82
397.644	19.98
397.897	21.38
398.15	22.73
398.403	25.7
398.657	24.24
398.91	22.84
399.163	23.3
399.416	21.73
399.669	20.29
399.922	18.69
400.175	17.01
400.428	15.38
400.681	16.29
400.934	11.2
401.187	9.4
401.44	10.13
401.693	9.18
401.946	7.79
402.199	2.97
402.452	1.51
402.704	-2.06
402.957	-2.58
403.21	-1.35
403.463	-0.17
403.716	1.06
403.969	2.02
404.221	0.02
404.474	0.05
404.727	3.67
404.98	5.19
405.232	5.92
405.485	8.04
405.738	9.57
405.99	9.6
406.243	10.14
406.496	12.9
406.748	14.52
407.001	13.86
407.253	14.96
407.506	15.1
407.759	16.7
408.011	14.33
408.264	14.46
408.516	13.6
408.769	11.6
409.021	12.1
409.274	13.11
409.526	15.91
409.778	14.61
410.031	17.56
410.283	17.93
410.536	23.35
410.788	21.04
411.04	20.17
411.293	20.38
411.545	20
411.797	18.83
412.049	19.18
412.302	20.38
412.554	21.01
412.806	17.93
413.058	16.56
413.311	16.63
413.563	14.99
413.815	14.64
414.067	12.07
414.319	10.56
414.571	9.9
414.823	8.05
415.075	7.12
415.328	8.38
415.58	11.6
415.832	13.24
416.084	14.67
416.336	13.92
416.588	17.09
416.84	15.05
417.091	16.59
417.343	12.5
417.595	13.99
417.847	16.59
418.099	17.48
418.351	16.49
418.603	20.19
418.855	20.84
419.106	21.05
419.358	22.27
419.61	23.26
419.862	24.68
420.114	22.81
420.365	21.85
420.617	23.68
420.869	23.2
421.12	23.22
421.372	24.57
421.624	23.68
421.875	24.8
422.127	21.35
422.379	21.62
422.63	23.72
422.882	22.39
423.133	23.34
423.385	23.09
423.636	25.28
423.888	26.99
424.139	29.4
424.391	27.42
424.642	27.06
424.894	24.65
425.145	24.36
425.396	21.95
425.648	23.28
425.899	22.23
426.151	22.67
426.402	22.42
426.653	23.26
426.905	21.65
427.156	19.94
427.407	19.55
427.658	19.18
427.91	17.57
428.161	18.05
428.412	19.17
428.663	20.46
428.914	21.05
429.166	22.73
429.417	24.71
429.668	23.27
429.919	22.44
430.17	22.52
430.421	24.33
430.672	26.99
430.923	26.05
431.174	25.16
431.425	24.15
431.676	22.14
431.927	19.13
432.178	21.76
432.429	21.96
432.68	22.15
432.931	26.35
433.182	29.7
433.433	26.6
433.683	28.86
433.934	27.67
434.185	25.55
434.436	23.8
434.687	24.6
434.937	27.08
435.188	24.9
435.439	24.82
435.69	25.77
435.94	23.63
436.191	25.08
436.442	24.76
436.692	23.51
436.943	20.04
437.194	18.49
437.444	21.45
437.695	25.72
437.945	26.19
438.196	24.5
438.447	25.34
438.697	25.12
438.948	24.14
439.198	22.02
439.449	19.68
439.699	22.14
439.949	21.27
440.2	21.65
440.45	23.64
440.701	23.3
440.951	23.26
441.201	25.19
441.452	23.5
441.702	23.3
441.952	25.43
442.203	27.31
442.453	26.65
442.703	26.75
442.953	29.45
443.204	31.17
443.454	29.42
443.704	31.01
443.954	28.02
444.204	29.2
444.455	30.69
444.705	33.53
444.955	33.94
445.205	33.51
445.455	31.2
445.705	32.93
445.955	33.01
446.205	31.64
446.455	34.54
446.705	35.7
446.955	37.58
447.205	40.87
447.455	43.04
447.705	41.54
447.955	41.03
448.205	41.45
448.454	41.38
448.704	42.54
448.954	42.62
449.204	44.34
449.454	45.49
449.704	45.65
449.953	46.44
450.203	49.78
450.453	48.4
450.703	50.48
450.952	49.93
451.202	53.06
451.452	53.5
451.701	56.82
451.951	60.79
452.201	61.33
452.45	61
452.7	64.72
452.949	64.95
453.199	65.97
453.448	66.69
453.698	69.54
453.947	69.77
454.197	67.77
454.446	68.29
454.696	71.52
454.945	70.14
455.195	67.12
455.444	69.82
455.693	73.74
455.943	72.95
456.192	74.74
456.442	75.96
456.691	75.72
456.94	75.58
457.189	74.94
457.439	77.43
457.688	78.91
457.937	77.58
458.186	77.53
458.436	77.92
458.685	79.69
458.934	78.32
459.183	78.3
459.432	79.84
459.681	78.86
459.93	77.18
460.179	77.14
460.429	74.52
460.678	77.52
460.927	79.76
461.176	79.23
461.425	77.91
461.674	81.26
461.923	82.08
462.172	81.26
462.42	79.82
462.669	81.63
462.918	81.84
463.167	81.01
463.416	78.02
463.665	77.95
463.914	77.4
464.162	74.44
464.411	74.77
464.66	76.45
464.909	76.23
465.158	75.33
465.406	74.51
465.655	76.16
465.904	78.79
466.152	77.62
466.401	77.17
466.65	79.75
466.898	78.73
467.147	76.15
467.395	74.32
467.644	77.4
467.893	76.96
468.141	76.76
468.39	73.14
468.638	70.98
468.887	69.08
469.135	68.57
469.384	67.04
469.632	67.78
469.88	67.59
470.129	69.02
470.377	66.76
470.626	69.85
470.874	71.34
471.122	72.42
471.371	71.2
471.619	68.92
471.867	72.23
472.115	71.62
472.364	68.53
472.612	71.26
472.86	69.3
473.108	69.79
473.356	69.76
473.605	69.32
473.853	67.73
474.101	66.81
474.349	65.19
474.597	67.15
474.845	65.38
475.093	65.12
475.341	62.43
475.589	62.99
475.837	63.57
476.085	66.11
476.333	65.1
476.581	67.12
476.829	66.39
477.077	69.34
477.325	68.36
477.573	68.67
477.821	65.89
478.069	67.88
478.317	67.56
478.564	68.89
478.812	67.38
479.06	66.2
479.308	65.9
479.555	64.37
479.803	64.83
480.051	66.42
480.299	65.09
480.546	64.88
480.794	62.61
481.042	62.11
481.289	60.98
481.537	61.86
481.784	60.95
482.032	64.54
482.28	64.42
482.527	64.98
482.775	65.55
483.022	65.83
483.27	66.39
483.517	69.77
483.765	68.37
484.012	68.67
484.259	66.38
484.507	69.94
484.754	69.66
485.002	69.7
485.249	69.26
485.496	72.89
485.744	71.57
485.991	70.51
486.238	70.73
486.486	74.67
486.733	76.25
486.98	80.13
487.227	79.4
487.474	80.85
487.722	83.78
487.969	81.91
488.216	82.88
488.463	83.25
488.71	82.49
488.957	81.98
489.204	82.85
489.451	85.11
489.699	84.82
489.946	82.91
490.193	82.66
490.44	82.71
490.687	84.82
490.934	83.53
491.18	79.58
491.427	80.97
491.674	84.54
491.921	85.52
492.168	84.59
492.415	82.66
492.662	85.41
492.909	87.78
493.155	86.86
493.402	86.02
493.649	86.24
493.896	86.26
494.142	82.43
494.389	82.26
494.636	80.35
494.883	80.18
495.129	78.61
495.376	77.05
495.623	80.24
495.869	82.04
496.116	84.45
496.362	86.39
496.609	91.42
496.855	96.99
497.102	95.38
497.348	94.9
497.595	97.9
497.841	103.33
498.088	102.29
498.334	102.22
498.581	102.89
498.827	104.23
499.074	104.98
499.32	106.96
499.566	111.8
499.813	112.02
500.059	111.18
500.305	111.01
500.552	110.04
500.798	109.39
501.044	114.38
501.29	112.89
501.537	111.29
501.783	114.87
502.029	118.66
502.275	117.3
502.521	116.45
502.767	118.83
503.013	121.98
503.26	119.54
503.506	116.4
503.752	117.56
503.998	116.56
504.244	115.8
504.49	113.06
504.736	115.48
504.982	114.7
505.228	116.36
505.474	115.92
505.72	118.11
505.966	117.19
506.211	120.23
506.457	120.75
506.703	119.58
506.949	117.02
507.195	115.74
507.441	114.21
507.686	117.35
507.932	117.22
508.178	120.13
508.424	119.93
508.669	117.8
508.915	120.02
509.161	123.4
509.406	124.76
509.652	125.38
509.898	129.49
510.143	130.79
510.389	129.57
510.634	126.3
510.88	130.04
511.125	134.84
511.371	135.65
511.616	136.9
511.862	134.31
512.107	131.58
512.353	132.52
512.598	133.66
512.844	130.51
513.089	128.25
513.335	129.64
513.58	129.7
513.825	129.67
514.071	129.95
514.316	130.73
514.561	132.71
514.806	130.95
515.052	133.54
515.297	132.45
515.542	133.98
515.787	135.12
516.033	137.23
516.278	137.43
516.523	136.01
516.768	134.98
517.013	132.16
517.258	131.65
517.503	131.66
517.748	131.83
517.993	132.46
518.238	133.07
518.483	132.19
518.728	130.87
518.973	129.11
519.218	128.93
519.463	131.57
519.708	131.9
519.953	131.63
520.198	131.59
520.443	134.96
520.688	138.57
520.933	139.15
521.177	141.1
521.422	139.69
521.667	142.62
521.912	142.43
522.157	138.62
522.401	141.55
522.646	142.28
522.891	143.12
523.135	144.1
523.38	144.08
523.625	142.08
523.869	144.45
524.114	147.2
524.358	146.32
524.603	147.84
524.848	146.78
525.092	145.87
525.337	147.55
525.581	149.45
525.826	152.15
526.07	152.55
526.315	153.5
526.559	153.59
526.803	152.67
527.048	155.48
527.292	156.05
527.537	155.84
527.781	155.73
528.025	153.37
528.269	154.95
528.514	153.89
528.758	151.99
529.002	151.94
529.247	154.93
529.491	153.19
529.735	158.94
529.979	159.09
530.223	160.23
530.467	158.2
530.712	157.19
530.956	156.35
531.2	157.74
531.444	156.21
531.688	157.8
531.932	156.63
532.176	157.92
532.42	157.49
532.664	159.13
532.908	159.04
533.152	156.76
533.396	155.52
533.64	154.96
533.884	153.23
534.128	152.43
534.371	155.13
534.615	156.55
534.859	157.43
535.103	157.69
535.347	157.97
535.59	160.1
535.834	156
536.078	157.53
536.322	160.34
536.565	164.21
536.809	161.33
537.053	164.88
537.296	163.05
537.54	162.83
537.784	161.18
538.027	163.69
538.271	161.56
538.514	159.71
538.758	160.16
539.001	158.89
539.245	158.32
539.488	160.86
539.732	161.79
539.975	163.11
540.219	165.97
540.462	165.73
540.706	168.51
540.949	168.5
541.192	170.02
541.436	176.68
541.679	182.81
541.922	182.67
542.166	177.46
542.409	177.13
542.652	178.63
542.895	180.66
543.139	181.25
543.382	186.98
543.625	187.67
543.868	188.35
544.111	186.08
544.354	185.49
544.598	184.49
544.841	184.48
545.084	184.41
545.327	184.97
545.57	185.55
545.813	189.11
546.056	190.66
546.299	191.85
546.542	194.67
546.785	198.69
547.028	198.65
547.271	198.46
547.514	198.92
547.756	195.11
547.999	197.27
548.242	197.97
548.485	195.7
548.728	194.86
548.971	190.23
549.213	189.71
549.456	188.76
549.699	190.36
549.942	191.3
550.184	190.36
550.427	189.36
550.67	189.81
550.912	184.1
551.155	184.66
551.398	183.04
551.64	184.62
551.883	185.64
552.125	185.44
552.368	186.46
552.61	183.63
552.853	185.85
553.095	184.89
553.338	184.03
553.58	184.27
553.823	183.57
554.065	185.91
554.308	180.18
554.55	180.01
554.792	178.83
555.035	177.54
555.277	177.94
555.519	178.67
555.762	176.76
556.004	178.48
556.246	177.59
556.488	178.71
556.731	175.74
