Data from FLMT021711__23__17-57-17-276.txt Node

Date: Tue Nov 05 17:57:17 CET 2024
User: Etudiants TP
Spectrometer: FLMT02171
Trigger mode: 0
Integration Time (sec): 1.000000E-1
Scans to average: 5
Electric dark correction enabled: true
Nonlinearity correction enabled: false
Boxcar width: 15
XAxis mode: Wavelengths
Number of Pixels in Spectrum: 3648
>>>>>Begin Spectral Data<<<<<
194.658	-71.1
194.923	-67.23
195.188	-59.31
195.453	-58.44
195.717	-52.68
195.982	-50.99
196.247	-48.46
196.512	-50.83
196.777	-49.4
197.042	-46.55
197.307	-47.19
197.572	-42.34
197.837	-42.95
198.101	-41.14
198.366	-38.35
198.631	-35.9
198.896	-28.64
199.161	-20.52
199.425	-11.77
199.69	-1.61
199.955	-1.42
200.22	-5.4
200.484	-5.47
200.749	-5.96
201.014	-4.57
201.278	-4.6
201.543	-3.53
201.807	-5.79
202.072	-4.19
202.337	-5.25
202.601	-4.89
202.866	-6.04
203.13	-5.25
203.395	-7.13
203.659	-6.26
203.924	-8.06
204.189	-7.6
204.453	-6.49
204.717	-3.36
204.982	-1.91
205.246	-1.81
205.511	0.77
205.775	-0.66
206.04	6.05
206.304	7.65
206.568	8.99
206.833	8.16
207.097	9.31
207.361	10.19
207.626	14.09
207.89	15.02
208.154	15.58
208.419	18.61
208.683	19.17
208.947	22.19
209.211	20.63
209.476	20.63
209.74	21.07
210.004	22.48
210.268	23.1
210.532	26.81
210.796	27.18
211.061	27.69
211.325	27.84
211.589	25
211.853	25.45
212.117	25.07
212.381	25.98
212.645	26.28
212.909	25.74
213.173	21.9
213.437	22.53
213.701	22.48
213.965	24.72
214.229	19.58
214.493	19.1
214.757	18.55
215.021	18.29
215.285	21.62
215.549	23.79
215.813	19.87
216.077	18.91
216.34	20.8
216.604	20.09
216.868	20.92
217.132	21.82
217.396	21.48
217.659	21.35
217.923	18.49
218.187	18.83
218.451	18.56
218.714	15.34
218.978	15.21
219.242	16.57
219.505	17.18
219.769	20.8
220.033	20.08
220.296	21.85
220.56	22.2
220.824	19.43
221.087	21.38
221.351	22.77
221.614	22.33
221.878	24.87
222.142	21.35
222.405	21.12
222.669	22.71
222.932	19.52
223.196	18.58
223.459	15.88
223.722	17.03
223.986	16.56
224.249	16
224.513	14.98
224.776	14.84
225.04	13.98
225.303	12.84
225.566	11.94
225.83	13.98
226.093	17.93
226.356	15.81
226.62	13.04
226.883	14.93
227.146	16.13
227.409	16.06
227.673	14.06
227.936	11.75
228.199	12.2
228.462	10.48
228.725	8.95
228.989	9.34
229.252	8.43
229.515	14.2
229.778	12.02
230.041	9.69
230.304	7.77
230.567	8.25
230.83	6.25
231.093	8.43
231.356	7.85
231.619	13.25
231.882	11.83
232.145	14.43
232.408	13.02
232.671	12.84
232.934	10.9
233.197	9.6
233.46	9.62
233.723	12.2
233.986	11.36
234.249	7.53
234.512	9.78
234.775	14.67
235.037	14.53
235.3	14.59
235.563	14.96
235.826	16.21
236.089	18.36
236.351	18.29
236.614	20.61
236.877	21.8
237.14	23.69
237.402	23.11
237.665	15.45
237.928	16.04
238.19	13.94
238.453	17.11
238.716	16.04
238.978	16.81
239.241	15.56
239.503	18.24
239.766	13
240.029	11.3
240.291	15.11
240.554	15.11
240.816	14.55
241.079	15.28
241.341	14.5
241.604	12.1
241.866	8.58
242.129	7.51
242.391	9.46
242.653	8.52
242.916	7.29
243.178	7.52
243.441	7.49
243.703	7.12
243.965	3.95
244.228	3.78
244.49	2.87
244.752	3.4
245.015	3.87
245.277	6.16
245.539	6.1
245.801	9.12
246.064	9.01
246.326	8.77
246.588	8.68
246.85	11.73
247.112	11.72
247.374	14.19
247.637	16.26
247.899	15.95
248.161	16.61
248.423	10.32
248.685	11.43
248.947	10.29
249.209	11.57
249.471	13.24
249.733	15.51
249.995	15.9
250.257	17.39
250.519	15.66
250.781	18.62
251.043	16.55
251.305	17.45
251.567	19.5
251.829	19.54
252.091	20.92
252.353	17.02
252.615	17.24
252.876	15.81
253.138	13.67
253.4	9.62
253.662	9.88
253.924	11.78
254.185	12.09
254.447	11.34
254.709	11.39
254.971	12.28
255.232	12.51
255.494	11
255.756	8.15
256.017	9.67
256.279	10.45
256.541	12.21
256.802	11.57
257.064	13.1
257.326	10.72
257.587	12.16
257.849	12.16
258.11	13.45
258.372	13.39
258.633	14.61
258.895	13.32
259.156	12.88
259.418	11.47
259.679	6.91
259.941	5.18
260.202	7.49
260.464	11.07
260.725	11.14
260.987	8.92
261.248	9.18
261.509	10.03
261.771	8.45
262.032	10.17
262.293	10.78
262.555	12.51
262.816	9.72
263.077	7.98
263.338	6.49
263.6	5.93
263.861	6.84
264.122	5.96
264.383	7.25
264.645	7.99
264.906	7.25
265.167	8.71
265.428	8.6
265.689	9.74
265.95	6.93
266.211	9.38
266.473	9.62
266.734	6.78
266.995	4.01
267.256	4.18
267.517	6.8
267.778	11.05
268.039	11.87
268.3	11.3
268.561	8.31
268.822	11.84
269.083	11.08
269.344	9.89
269.604	8.83
269.865	10.96
270.126	6.08
270.387	7.44
270.648	8.91
270.909	11.3
271.17	9.54
271.43	6.74
271.691	4.24
271.952	2.15
272.213	4.32
272.473	1.41
272.734	1.41
272.995	4.28
273.256	4.13
273.516	6.74
273.777	2.28
274.038	5.05
274.298	2.84
274.559	2.4
274.82	8.35
275.08	10.83
275.341	13.37
275.601	10.59
275.862	7.2
276.122	7.16
276.383	7.31
276.643	9.42
276.904	7.6
277.164	11.31
277.425	12.08
277.685	17.59
277.946	17.3
278.206	19.43
278.467	20.59
278.727	19.47
278.987	18.09
279.248	18.52
279.508	19.78
279.768	21.95
280.029	22.74
280.289	18.65
280.549	19.48
280.81	19.45
281.07	16.52
281.33	17.35
281.59	15.23
281.851	18.24
282.111	16.9
282.371	15.65
282.631	17.29
282.891	14.89
283.151	12.81
283.412	9.62
283.672	9.7
283.932	11.38
284.192	12.63
284.452	10.71
284.712	7.95
284.972	5.89
285.232	2.23
285.492	4.93
285.752	0.89
286.012	6.92
286.272	9.03
286.532	6.37
286.792	6.99
287.052	9.16
287.312	9.42
287.571	9.86
287.831	9.29
288.091	8.35
288.351	10.2
288.611	13.85
288.871	12.74
289.13	13
289.39	9.78
289.65	12.04
289.91	9.25
290.17	12.45
290.429	15.19
290.689	11.81
290.949	9.62
291.208	12.5
291.468	16.2
291.728	18.1
291.987	19.92
292.247	19.15
292.506	20.18
292.766	23.02
293.026	21.25
293.285	23.75
293.545	24.77
293.804	23.93
294.064	19.75
294.323	16.5
294.583	17.19
294.842	16.85
295.102	16.69
295.361	17.39
295.621	16.85
295.88	19.16
296.139	17.87
296.399	18.98
296.658	11.87
296.917	12.53
297.177	10.4
297.436	11.66
297.695	9.97
297.955	12.11
298.214	10.61
298.473	12.8
298.732	15.7
298.992	17.87
299.251	16.23
299.51	12.47
299.769	12.48
300.028	10.87
300.287	10.61
300.547	12.6
300.806	11.41
301.065	16.17
301.324	17.21
301.583	14.79
301.842	11.74
302.101	9.59
302.36	9.43
302.619	8.93
302.878	9.36
303.137	6.16
303.396	6.47
303.655	9.55
303.914	7.49
304.173	8.8
304.432	7.45
304.691	11.17
304.95	8.47
305.208	13.29
305.467	13.66
305.726	12.85
305.985	13.99
306.244	16.2
306.503	15.04
306.761	14.59
307.02	12.01
307.279	12.27
307.537	14.05
307.796	11.67
308.055	10.33
308.314	11.47
308.572	8.52
308.831	9.24
309.09	9.02
309.348	10.44
309.607	9.16
309.865	14.34
310.124	14.39
310.382	16.12
310.641	17.36
310.9	16.17
311.158	17.87
311.417	17.84
311.675	16.26
311.933	15.4
312.192	16.42
312.45	15.28
312.709	16.29
312.967	15.51
313.226	14.79
313.484	13.77
313.742	12.22
314.001	9.77
314.259	7.08
314.517	7.7
314.776	7.37
315.034	9.85
315.292	8.51
315.55	6.31
315.809	5.75
316.067	5.44
316.325	2.47
316.583	3.95
316.841	2.92
317.1	1.78
317.358	-2.79
317.616	-2.72
317.874	-4.68
318.132	-4.7
318.39	-3.79
318.648	-5.31
318.906	-5.83
319.164	-5.46
319.422	-7.77
319.68	-7.13
319.938	-6.37
320.196	-6.32
320.454	-3.92
320.712	-4.41
320.97	-2.61
321.228	-4.51
321.486	-2.63
321.744	-0.17
322.002	1.75
322.26	-0.02
322.517	-1.88
322.775	-4.02
323.033	-6.27
323.291	-4.75
323.549	-3.68
323.806	-1.35
324.064	0.26
324.322	3.48
324.58	1.94
324.837	4.75
325.095	3.01
325.353	5.73
325.61	6.33
325.868	6.08
326.126	8.55
326.383	6.63
326.641	6.19
326.898	8.07
327.156	7.54
327.413	9.95
327.671	9.92
327.928	12.52
328.186	13.32
328.443	12.53
328.701	15.75
328.958	16.39
329.216	15.74
329.473	13.31
329.731	12.77
329.988	12.47
330.245	14.37
330.503	16.6
330.76	17.36
331.017	20.48
331.275	18.3
331.532	19.15
331.789	16.68
332.047	15.28
332.304	11.47
332.561	12.8
332.818	11.06
333.076	12.87
333.333	13.45
333.59	14.88
333.847	17.1
334.104	14.78
334.361	13.8
334.618	12.45
334.876	9.95
335.133	10.09
335.39	7.39
335.647	8.33
335.904	4.79
336.161	1.52
336.418	1.53
336.675	-3.04
336.932	-1.64
337.189	-0.71
337.446	1.24
337.703	-0.15
337.96	-3.96
338.216	-2.69
338.473	-5.88
338.73	-4.83
338.987	-4.91
339.244	-1.16
339.501	-2.99
339.757	-1.5
340.014	0.06
340.271	2.45
340.528	1.95
340.785	5.65
341.041	6.39
341.298	4.21
341.555	2.37
341.811	1.14
342.068	0.14
342.325	0.88
342.581	4.6
342.838	6.51
343.094	5.24
343.351	5.75
343.608	3.2
343.864	5.66
344.121	7.78
344.377	7.36
344.634	7.01
344.89	5.05
345.147	4.34
345.403	2.43
345.66	2.51
345.916	5.78
346.172	2.65
346.429	1.53
346.685	-1.27
346.942	-2.27
347.198	-6.32
347.454	-6.05
347.711	-7
347.967	-8.24
348.223	-7.16
348.48	-7.46
348.736	-4.31
348.992	-5.3
349.248	-3.32
349.504	-4.05
349.761	-3.89
350.017	-3.74
350.273	-3.07
350.529	-4.52
350.785	-5.04
351.041	-4.41
351.297	-3.98
351.554	-5.38
351.81	-7.25
352.066	-8.88
352.322	-8.75
352.578	-6.94
352.834	-7.81
353.09	-8.33
353.346	-8.11
353.602	-8.18
353.858	-10.55
354.114	-10.22
354.369	-8.29
354.625	-6.32
354.881	-7.27
355.137	-4.43
355.393	-4.16
355.649	-3.07
355.905	-4.8
356.16	-6
356.416	-5.06
356.672	-12.05
356.928	-11.55
357.183	-12.66
357.439	-10.68
357.695	-12.24
357.951	-7.7
358.206	-8.87
358.462	-9.42
358.718	-11.15
358.973	-10.63
359.229	-9.8
359.484	-8.15
359.74	-5.54
359.996	-4.89
360.251	-2.13
360.507	-3.62
360.762	-4.18
361.018	-1.56
361.273	-3.43
361.529	-3.48
361.784	-2.1
362.04	-0.19
362.295	-1.12
362.55	-0.64
362.806	1.23
363.061	1.32
363.316	2.31
363.572	3.39
363.827	6.06
364.082	3.65
364.338	3.38
364.593	3.91
364.848	4.77
365.104	3.92
365.359	6.76
365.614	6.67
365.869	3.39
366.124	3.73
366.38	2.83
366.635	5.64
366.89	6.4
367.145	5.83
367.4	9.36
367.655	8.76
367.91	9.17
368.165	7.25
368.42	4.24
368.675	6.41
368.93	8.2
369.185	6.93
369.44	8.06
369.695	10.33
369.95	8.6
370.205	8.82
370.46	8.56
370.715	7.73
370.97	8.46
371.225	8.32
371.48	9.49
371.734	10.06
371.989	12.25
372.244	11.61
372.499	12.67
372.754	10.66
373.008	8.33
373.263	3.33
373.518	6.3
373.773	4.01
374.027	3.95
374.282	6.94
374.537	6.9
374.791	8.41
375.046	7.57
375.301	5.98
375.555	4
375.81	6.77
376.064	7.83
376.319	12.09
376.573	10.61
376.828	6.02
377.082	10.62
377.337	8.3
377.591	5.55
377.846	7.23
378.1	9.57
378.355	9.97
378.609	9.45
378.863	5.14
379.118	6.9
379.372	4.63
379.627	1.72
379.881	0
380.135	-0.13
380.389	-0.12
380.644	0.47
380.898	2.02
381.152	4.75
381.407	4.58
381.661	7.87
381.915	9.01
382.169	7.92
382.423	6.37
382.677	2.55
382.932	4.22
383.186	5.11
383.44	5.87
383.694	6.71
383.948	3.58
384.202	2.94
384.456	5.12
384.71	6.8
384.964	5.2
385.218	8.25
385.472	7.81
385.726	5.96
385.98	5.44
386.234	4.82
386.488	2.91
386.742	4.61
386.996	1.36
387.249	2.49
387.503	4.87
387.757	5.04
388.011	5.79
388.265	6.48
388.518	7.27
388.772	8.95
389.026	7.86
389.28	4.63
389.533	3.65
389.787	5.03
390.041	3.56
390.295	3.72
390.548	4.34
390.802	6
391.055	4.21
391.309	4.64
391.563	1.23
391.816	2.28
392.07	0.46
392.323	1.79
392.577	2.26
392.83	3.67
393.084	8.51
393.337	12.97
393.591	14.33
393.844	13.66
394.098	18.04
394.351	22.46
394.604	24.03
394.858	26.28
395.111	26.75
395.364	24.27
395.618	27.2
395.871	25.95
396.124	23.58
396.378	22.6
396.631	20.88
396.884	19.22
397.137	20.18
397.391	20.78
397.644	17.44
397.897	18.71
398.15	20.11
398.403	23.46
398.657	22.37
398.91	21.19
399.163	21.47
399.416	21.03
399.669	19.97
399.922	19.6
400.175	15.54
400.428	13.96
400.681	13.24
400.934	8.73
401.187	7.48
401.44	7.88
401.693	6.97
401.946	2.45
402.199	-2.97
402.452	-3.17
402.704	-7.34
402.957	-9.07
403.21	-6.94
403.463	-7.23
403.716	-6.58
403.969	-3.27
404.221	-3.76
404.474	0.16
404.727	3.14
404.98	4.33
405.232	3.99
405.485	6.02
405.738	7.74
405.99	8.89
406.243	7.21
406.496	8.89
406.748	9.52
407.001	7.46
407.253	8.47
407.506	8.99
407.759	9.76
408.011	10.17
408.264	11.7
408.516	12.77
408.769	9.64
409.021	10.54
409.274	9.77
409.526	11.91
409.778	11.74
410.031	14.88
410.283	14.93
410.536	22.59
410.788	20.43
411.04	20.12
411.293	20.81
411.545	22
411.797	19.78
412.049	19.19
412.302	18.82
412.554	19.3
412.806	18.56
413.058	16.82
413.311	17.88
413.563	16.85
413.815	15.63
414.067	14.09
414.319	14.43
414.571	15.21
414.823	15.01
415.075	14.23
415.328	15.11
415.58	18.21
415.832	18.79
416.084	18.83
416.336	16.35
416.588	22.09
416.84	20.05
417.091	23.43
417.343	20.5
417.595	22.88
417.847	23.63
418.099	24.99
418.351	22.78
418.603	26.82
418.855	27.63
419.106	27.5
419.358	27.5
419.61	27.48
419.862	29.48
420.114	27.18
420.365	28.04
420.617	27.17
420.869	26.98
421.12	26.39
421.372	26.77
421.624	26.55
421.875	28.39
422.127	24.23
422.379	23.87
422.63	26.34
422.882	25.12
423.133	25.29
423.385	26.06
423.636	28.04
423.888	29.42
424.139	32.71
424.391	28.89
424.642	27.52
424.894	24.07
425.145	23.66
425.396	21.21
425.648	22.76
425.899	20
426.151	20.31
426.402	18.5
426.653	19.45
426.905	18.49
427.156	15.61
427.407	15.57
427.658	14.78
427.91	14.26
428.161	12.36
428.412	15.71
428.663	15.47
428.914	15.98
429.166	16.15
429.417	16.27
429.668	14.84
429.919	12.56
430.17	12.64
430.421	11.49
430.672	14.91
430.923	14.57
431.174	12.19
431.425	11.65
431.676	10.37
431.927	6.62
432.178	8.57
432.429	8.45
432.68	9.52
432.931	12.63
433.182	15
433.433	13.2
433.683	14.27
433.934	13.28
434.185	12.13
434.436	10.43
434.687	11.45
434.937	14.51
435.188	14.46
435.439	13.88
435.69	13.92
435.94	12.62
436.191	12.5
436.442	12.78
436.692	11.72
436.943	9.09
437.194	8.26
437.444	10.83
437.695	15.99
437.945	16.26
438.196	15
438.447	14.96
438.697	14.92
438.948	13.22
439.198	9.8
439.449	6.15
439.699	7.12
439.949	6.35
440.2	6.7
440.45	6.74
440.701	5.57
440.951	4.47
441.201	4.47
441.452	4.37
441.702	3.3
441.952	4.19
442.203	3.12
442.453	0.41
442.703	0.93
442.953	0.15
443.204	1.19
443.454	-0.4
443.704	0.6
443.954	-3.12
444.204	-2.76
444.455	-1.49
444.705	-0.01
444.955	-1.4
445.205	-3
445.455	-6.31
445.705	-6.35
445.955	-5.96
446.205	-7.21
446.455	-5.68
446.705	-3.51
446.955	-0.96
447.205	0.63
447.455	3.01
447.705	1.11
447.955	-0.24
448.205	0.79
448.454	0.65
448.704	1.82
448.954	-0.19
449.204	0.88
449.454	1
449.704	1.12
449.953	2.11
450.203	4.35
450.453	1.15
450.703	3.52
450.952	2.79
451.202	4.99
451.452	4.03
451.701	7.23
451.951	10.43
452.201	8.8
452.45	8.85
452.7	11.48
452.949	11.21
453.199	10.59
453.448	12.54
453.698	14.26
453.947	13.99
454.197	12.05
454.446	10.4
454.696	12.37
454.945	14.02
455.195	12.37
455.444	13.54
455.693	18.25
455.943	16.63
456.192	16.52
456.442	16.49
456.691	18.14
456.94	17.32
457.189	16.09
457.439	18.1
457.688	19.65
457.937	18.22
458.186	20.17
458.436	19.4
458.685	19.68
458.934	19
459.183	18.53
459.432	20.27
459.681	20.96
459.93	19.83
460.179	20.51
460.429	18.21
460.678	21.67
460.927	25.42
461.176	23.62
461.425	23.39
461.674	24.93
461.923	25.74
462.172	25.56
462.42	25.29
462.669	26.75
462.918	25.72
463.167	24.95
463.416	21.58
463.665	22.07
463.914	24.16
464.162	22.75
464.411	22.9
464.66	24.22
464.909	22.71
465.158	22.5
465.406	22.93
465.655	25.98
465.904	27.18
466.152	27.79
466.401	28.05
466.65	29.8
466.898	29.89
467.147	26.39
467.395	25.81
467.644	29.39
467.893	27.83
468.141	28.09
468.39	24.21
468.638	22.4
468.887	21.59
469.135	19.4
469.384	19.61
469.632	19.08
469.88	19.59
470.129	21.03
470.377	18.02
470.626	21.26
470.874	23.57
471.122	24.69
471.371	22.64
471.619	20.43
471.867	22.48
472.115	22.27
472.364	20.21
472.612	24.29
472.86	21.97
473.108	22.55
473.356	22.84
473.605	21.64
473.853	20.99
474.101	21.26
474.349	18.84
474.597	20.76
474.845	19.88
475.093	18.3
475.341	16
475.589	16.23
475.837	17.26
476.085	20.47
476.333	19.65
476.581	20.81
476.829	22.71
477.077	24.91
477.325	25.13
477.573	26.62
477.821	24.67
478.069	24.93
478.317	25.26
478.564	28.34
478.812	26.31
479.06	26.12
479.308	24.25
479.555	25.64
479.803	24.96
480.051	25.55
480.299	24.64
480.546	25.38
480.794	21.97
481.042	21.73
481.289	21.51
481.537	21.8
481.784	20.5
482.032	24.88
482.28	25.16
482.527	25.24
482.775	24.3
483.022	25.69
483.27	26.62
483.517	30.5
483.765	27.87
484.012	27.51
484.259	25.81
484.507	26.47
484.754	26.28
485.002	25.37
485.249	23.01
485.496	25.39
485.744	26.34
485.991	24.62
486.238	22.14
486.486	26.39
486.733	28.42
486.98	32.3
487.227	29.26
487.474	30.86
487.722	33.54
487.969	30.55
488.216	30.13
488.463	29.58
488.71	28.96
488.957	27.8
489.204	27.39
489.451	28.4
489.699	26.54
489.946	23.82
490.193	22.79
490.44	23.54
490.687	22.21
490.934	19.39
491.18	15.72
491.427	18.13
491.674	20.25
491.921	20.43
492.168	19.56
492.415	16.56
492.662	19.16
492.909	21.45
493.155	19.41
493.402	16.99
493.649	15.25
493.896	16.11
494.142	11.41
494.389	9.79
494.636	7.64
494.883	6.61
495.129	4.88
495.376	2.67
495.623	5.79
495.869	7.61
496.116	10.15
496.362	10.12
496.609	13.97
496.855	18.56
497.102	17.82
497.348	16.49
497.595	18.87
497.841	23.35
498.088	21.2
498.334	21.98
498.581	22.01
498.827	21.56
499.074	22.15
499.32	23.5
499.566	28.06
499.813	28.62
500.059	27.01
500.305	26.11
500.552	26.58
500.798	25.89
501.044	31.41
501.29	30.17
501.537	25.82
501.783	28.63
502.029	32.99
502.275	30.12
502.521	28.31
502.767	29.54
503.013	33.52
503.26	30.97
503.506	28.21
503.752	30.49
503.998	29.61
504.244	29.91
504.49	27.52
504.736	29.3
504.982	29.49
505.228	29.95
505.474	31.06
505.72	32.84
505.966	31.58
506.211	35.78
506.457	35.51
506.703	32.25
506.949	30.23
507.195	27.99
507.441	24.56
507.686	28.03
507.932	28.82
508.178	29.44
508.424	28.01
508.669	25.69
508.915	27.88
509.161	32.22
509.406	33.85
509.652	32.76
509.898	36.95
510.143	38.82
510.389	38.54
510.634	33.97
510.88	37.6
511.125	41.81
511.371	41.81
511.616	43.32
511.862	41.59
512.107	37.57
512.353	39.45
512.598	41.32
512.844	39.82
513.089	36.47
513.335	38.87
513.58	39.44
513.825	39.07
514.071	40.15
514.316	40.34
514.561	41.97
514.806	41.26
515.052	45.26
515.297	43.51
515.542	43.15
515.787	44.33
516.033	46.3
516.278	46.63
516.523	46.12
516.768	45.06
517.013	40.19
517.258	38.73
517.503	38.45
517.748	38.91
517.993	37.36
518.238	38.41
518.483	36.48
518.728	34.58
518.973	31.4
519.218	29.91
519.463	29.11
519.708	29.37
519.953	27.99
520.198	26.6
520.443	29.4
520.688	31.47
520.933	31.12
521.177	30.2
521.422	28.22
521.667	30.29
521.912	30.75
522.157	27.22
522.401	29.67
522.646	28.79
522.891	29.66
523.135	31.46
523.38	31.05
523.625	30.29
523.869	32.18
524.114	33.91
524.358	31.75
524.603	34.11
524.848	32.51
525.092	31.95
525.337	33.39
525.581	36.32
525.826	37.05
526.07	37.99
526.315	38.47
526.559	38.18
526.803	36.71
527.048	41.78
527.292	43.73
527.537	44.06
527.781	43.93
528.025	40.89
528.269	42.65
528.514	42.15
528.758	42.38
529.002	41.59
529.247	45
529.491	44.88
529.735	49.81
529.979	48.49
530.223	50.32
530.467	47.95
530.712	45.6
530.956	44.61
531.2	45.67
531.444	43.49
531.688	43.76
531.932	44.91
532.176	45.04
532.42	45.84
532.664	47.28
532.908	46.2
533.152	43.51
533.396	44.15
533.64	44.13
533.884	41.69
534.128	42.05
534.371	44.35
534.615	43.89
534.859	43.23
535.103	41.71
535.347	43.89
535.59	45.1
535.834	42.47
536.078	43.81
536.322	45.1
536.565	49.53
536.809	45.71
537.053	48.05
537.296	46.01
537.54	45.85
537.784	45.39
538.027	47.98
538.271	47.25
538.514	46.38
538.758	46.63
539.001	45.96
539.245	45.49
539.488	44.39
539.732	47.41
539.975	47.91
540.219	50.14
540.462	50.81
540.706	53.65
540.949	52.45
541.192	52.48
541.436	58.39
541.679	63.63
541.922	64.64
542.166	59.37
542.409	58.15
542.652	58.36
542.895	57.58
543.139	57.91
543.382	61.93
543.625	61.2
543.868	61.34
544.111	58.79
544.354	57.81
544.598	55.42
544.841	55.55
545.084	54.05
545.327	53.37
545.57	54.71
545.813	55.89
546.056	55.38
546.299	55.61
546.542	56.7
546.785	58.7
547.028	61.39
547.271	60.15
547.514	61.69
547.756	58.58
547.999	58.09
548.242	59.6
548.485	58.75
548.728	58.75
548.971	54.96
549.213	54.56
549.456	53.5
549.699	55.66
549.942	56.69
550.184	56.62
550.427	56.9
550.67	56.8
550.912	50.57
551.155	51.84
551.398	52.01
551.64	52.38
551.883	53.04
552.125	53.26
552.368	54.57
552.61	53.61
552.853	54.96
553.095	54.03
553.338	54.73
553.58	55.69
553.823	53.45
554.065	56.47
554.308	53.19
554.55	50.98
554.792	48.71
555.035	47.45
555.277	46.77
555.519	47.72
555.762	44.89
556.004	46.25
556.246	43.36
556.488	44.69
556.731	40.57
556.973	42.04
557.215	40.16
557.457	41.57
557.699	44.64
557.941	41.75
558.183	40.68
558.426	44.75
558.668	41.44
558.91	42.03
559.152	42.61
559.394	43.67
559.636	44.79
559.878	44.54
560.12	44.84
560.362	46.34
560.604	45.97
560.845	45.73
561.087	45.25
561.329	49.66
561.571	47.05
561.813	49.32
562.055	48.67
562.297	50.51
