Data from FLMT021711__4__17-53-54-587.txt Node

Date: Tue Nov 05 17:53:54 CET 2024
User: Etudiants TP
Spectrometer: FLMT02171
Trigger mode: 0
Integration Time (sec): 1.000000E-1
Scans to average: 5
Electric dark correction enabled: true
Nonlinearity correction enabled: false
Boxcar width: 15
XAxis mode: Wavelengths
Number of Pixels in Spectrum: 3648
>>>>>Begin Spectral Data<<<<<
194.658	-67.97
194.923	-64.34
195.188	-56.94
195.453	-56.5
195.717	-49.76
195.982	-49.1
196.247	-47.39
196.512	-50.1
196.777	-47.56
197.042	-45.76
197.307	-45.59
197.572	-41.95
197.837	-41.55
198.101	-38.54
198.366	-35.8
198.631	-33.86
198.896	-26.54
199.161	-19.77
199.425	-11.85
199.69	-1.03
199.955	-0.75
200.22	-4.34
200.484	-4.62
200.749	-5.23
201.014	-3.37
201.278	-1.95
201.543	-1.69
201.807	-2.01
202.072	0.09
202.337	0.5
202.601	1.47
202.866	-0.49
203.13	0.72
203.395	-2.71
203.659	-2.18
203.924	-4.07
204.189	-3.76
204.453	-2.13
204.717	1.8
204.982	1.9
205.246	3.66
205.511	5.17
205.775	5.38
206.04	10.35
206.304	10.66
206.568	11.75
206.833	11.95
207.097	13.54
207.361	15.97
207.626	19.17
207.89	19.36
208.154	19.37
208.419	22.23
208.683	22.11
208.947	24.93
209.211	24.22
209.476	22.24
209.74	22.67
210.004	22.87
210.268	22.43
210.532	24.43
210.796	23.64
211.061	23.88
211.325	24.06
211.589	23.12
211.853	24.09
212.117	24.64
212.381	25.29
212.645	24.67
212.909	24.22
213.173	22.19
213.437	22.11
213.701	23.05
213.965	24.02
214.229	20.14
214.493	18.57
214.757	17.44
215.021	17.27
215.285	19.88
215.549	22.38
215.813	19.39
216.077	18.73
216.34	21.48
216.604	19.49
216.868	20.55
217.132	21.33
217.396	20.62
217.659	21.9
217.923	18.8
218.187	19.28
218.451	18.64
218.714	16.49
218.978	16.25
219.242	20.32
219.505	19.82
219.769	22.13
220.033	22.04
220.296	23.2
220.56	24.99
220.824	23.94
221.087	24.9
221.351	24.86
221.614	25.65
221.878	26.91
222.142	24.15
222.405	22.62
222.669	25.63
222.932	22.82
223.196	20.23
223.459	16.65
223.722	16.52
223.986	16.34
224.249	16.39
224.513	15.93
224.776	16.21
225.04	15.56
225.303	15.3
225.566	14.74
225.83	16.61
226.093	19.48
226.356	17.34
226.62	15.5
226.883	17.22
227.146	17.89
227.409	16.13
227.673	14.55
227.936	14.41
228.199	14.35
228.462	11.76
228.725	9.59
228.989	10.02
229.252	10.48
229.515	14.41
229.778	11.54
230.041	11.06
230.304	9.96
230.567	11.5
230.83	8.48
231.093	10.84
231.356	11.41
231.619	17.53
231.882	16.19
232.145	19.69
232.408	17.7
232.671	16.13
232.934	15.74
233.197	14.16
233.46	12.61
233.723	14.35
233.986	12.55
234.249	10.13
234.512	11.5
234.775	16.01
235.037	14.38
235.3	14.51
235.563	14.84
235.826	15.95
236.089	17.57
236.351	16.79
236.614	20.35
236.877	21.98
237.14	23.72
237.402	23.47
237.665	19.7
237.928	20.14
238.19	18.55
238.453	20.48
238.716	19.7
238.978	20.63
239.241	18.89
239.503	21.72
239.766	17.29
240.029	15.81
240.291	17.43
240.554	17.29
240.816	17.29
241.079	17.77
241.341	17.79
241.604	16.25
241.866	13.73
242.129	14.43
242.391	18.39
242.653	17.28
242.916	17.54
243.178	17.56
243.441	18.53
243.703	17.41
243.965	16.31
244.228	16.08
244.49	16.24
244.752	16.66
245.015	16.49
245.277	17.84
245.539	16.49
245.801	17.7
246.064	16.78
246.326	14.4
246.588	14.88
246.85	18.29
247.112	18.9
247.374	20.89
247.637	22.82
247.899	21.2
248.161	21.58
248.423	16.36
248.685	18.39
248.947	17.62
249.209	17.7
249.471	19.69
249.733	20.81
249.995	19.96
250.257	19.57
250.519	17.3
250.781	19.94
251.043	17.53
251.305	20.15
251.567	21.63
251.829	22.55
252.091	21.74
252.353	18.86
252.615	20.38
252.876	17.07
253.138	16.1
253.4	11.96
253.662	12.94
253.924	14.38
254.185	16.53
254.447	18.31
254.709	18.22
254.971	18.17
255.232	20.27
255.494	18.7
255.756	16.12
256.017	16.31
256.279	18.08
256.541	19.01
256.802	17.81
257.064	18.31
257.326	17.08
257.587	17.02
257.849	18.2
258.11	21.12
258.372	21.34
258.633	21.83
258.895	21.73
259.156	20.35
259.418	19
259.679	14.37
259.941	12.27
260.202	14.81
260.464	17.01
260.725	14.45
260.987	14.52
261.248	14.49
261.509	14.53
261.771	13.54
262.032	14.35
262.293	13.67
262.555	13.59
262.816	11.88
263.077	10.47
263.338	7.72
263.6	8.33
263.861	6.89
264.122	8.33
264.383	8.8
264.645	9.3
264.906	8.99
265.167	10.39
265.428	10.73
265.689	12.81
265.95	10.82
266.211	11.15
266.473	10.51
266.734	7.45
266.995	5.17
267.256	4.97
267.517	5.76
267.778	9.35
268.039	10.75
268.3	10.13
268.561	7.77
268.822	11.51
269.083	8.18
269.344	6.91
269.604	7.27
269.865	6.77
270.126	3.43
270.387	5.02
270.648	6.86
270.909	6.69
271.17	5.1
271.43	1.25
271.691	0.3
271.952	-0.35
272.213	0.97
272.473	-1.51
272.734	-0.13
272.995	0.5
273.256	1.17
273.516	3.3
273.777	-0.01
274.038	1.86
274.298	0.43
274.559	0.47
274.82	6.05
275.08	6.41
275.341	8.82
275.601	8.84
275.862	6.92
276.122	7.41
276.383	7.58
276.643	11
276.904	9.68
277.164	14.44
277.425	14.34
277.685	17.48
277.946	18.5
278.206	19.08
278.467	20.63
278.727	19.77
278.987	19.45
279.248	19.34
279.508	22.71
279.768	24.43
280.029	26.74
280.289	23.38
280.549	22.2
280.81	21.98
281.07	21.25
281.33	22.39
281.59	21.22
281.851	23.42
282.111	21.6
282.371	18.5
282.631	20.41
282.891	17.9
283.151	17.53
283.412	14.69
283.672	14.63
283.932	15.09
284.192	15.41
284.452	14.01
284.712	10.15
284.972	8.72
285.232	6.84
285.492	10.23
285.752	9.21
286.012	14.81
286.272	17.82
286.532	13.89
286.792	14.08
287.052	15.7
287.312	15.63
287.571	14.15
287.831	13.69
288.091	11.68
288.351	12.27
288.611	17.05
288.871	16.02
289.13	16.23
289.39	12.26
289.65	12.43
289.91	10.89
290.17	13.59
290.429	17.99
290.689	14.87
290.949	11.91
291.208	13.23
291.468	17.29
291.728	17.15
291.987	18.59
292.247	16.87
292.506	18.91
292.766	22.09
293.026	21.12
293.285	21.41
293.545	21.83
293.804	20.68
294.064	16.61
294.323	14.14
294.583	14.98
294.842	14.51
295.102	15.48
295.361	16.86
295.621	18.4
295.88	18.38
296.139	18.58
296.399	20.51
296.658	14.66
296.917	15.13
297.177	11.86
297.436	12.46
297.695	11.54
297.955	11.85
298.214	10.75
298.473	11.47
298.732	13.93
298.992	17.62
299.251	16.92
299.51	12.48
299.769	12.99
300.028	13.15
300.287	13.48
300.547	13.33
300.806	11.56
301.065	16.23
301.324	18.38
301.583	15.75
301.842	13.08
302.101	12.36
302.36	12.48
302.619	12.57
302.878	14.08
303.137	10.91
303.396	11.15
303.655	11.78
303.914	9.29
304.173	9.79
304.432	8.63
304.691	13.77
304.95	12.29
305.208	17.77
305.467	19.18
305.726	19
305.985	19.67
306.244	21.64
306.503	21.51
306.761	22.08
307.02	18.83
307.279	19.97
307.537	20.91
307.796	18.65
308.055	17.19
308.314	19.32
308.572	17.34
308.831	18.05
309.09	17.45
309.348	18.82
309.607	17.73
309.865	21.68
310.124	19.91
310.382	21.95
310.641	22.8
310.9	20.1
311.158	21.8
311.417	20.83
311.675	20.91
311.933	23.01
312.192	23.27
312.45	22.62
312.709	20.6
312.967	19.4
313.226	18.93
313.484	18.85
313.742	16.41
314.001	15.18
314.259	13.74
314.517	15.01
314.776	16.15
315.034	18.64
315.292	16.23
315.55	16.16
315.809	16
316.067	15.76
316.325	13.16
316.583	14.61
316.841	13.38
317.1	10.5
317.358	5.86
317.616	5.72
317.874	3.93
318.132	3.91
318.39	2.8
318.648	2
318.906	2.33
319.164	2.02
319.422	2.99
319.68	1.27
319.938	2.15
320.196	2.49
320.454	4.14
320.712	3.84
320.97	5.1
321.228	2.84
321.486	3.16
321.744	5.6
322.002	7.35
322.26	5.92
322.517	4.16
322.775	0.83
323.033	-1.27
323.291	1.12
323.549	2.03
323.806	4.22
324.064	4.76
324.322	6.87
324.58	5.38
324.837	8.3
325.095	7.88
325.353	9.94
325.61	12.36
325.868	11.75
326.126	14.51
326.383	13.59
326.641	11.97
326.898	14.27
327.156	13.83
327.413	14.25
327.671	15.82
327.928	16.77
328.186	16.55
328.443	14.8
328.701	18.4
328.958	18.13
329.216	19.13
329.473	18.08
329.731	19.11
329.988	18.76
330.245	21.23
330.503	22.06
330.76	23.41
331.017	26.47
331.275	23.19
331.532	23.31
331.789	20.3
332.047	19.45
332.304	17.13
332.561	18.3
332.818	15.74
333.076	17.37
333.333	17.67
333.59	17.16
333.847	18.98
334.104	17.77
334.361	17
334.618	17.52
334.876	14.28
335.133	15.28
335.39	12.91
335.647	13.56
335.904	9.78
336.161	8.42
336.418	9.52
336.675	5.76
336.932	7.63
337.189	6.15
337.446	6.58
337.703	5.05
337.96	1.7
338.216	0.24
338.473	-1.81
338.73	-1.93
338.987	-2.44
339.244	0.87
339.501	-0.58
339.757	0.85
340.014	2.52
340.271	3.3
340.528	4.53
340.785	8.99
341.041	8.8
341.298	6.68
341.555	7.27
341.811	6.1
342.068	3.75
342.325	4.41
342.581	6.32
342.838	8.44
343.094	7.02
343.351	6.16
343.608	3.27
343.864	5.53
344.121	7.2
344.377	5.99
344.634	5.63
344.89	5.06
345.147	5.58
345.403	5.4
345.66	5.51
345.916	8.03
346.172	7.89
346.429	6.86
346.685	5.57
346.942	5.07
347.198	2.06
347.454	2.13
347.711	2.41
347.967	-1.18
348.223	-0.01
348.48	-1.18
348.736	0.35
348.992	-0.63
349.248	2.35
349.504	1.04
349.761	1.63
350.017	2.2
350.273	1.8
350.529	1.51
350.785	-0.02
351.041	-0.36
351.297	2.22
351.554	1.11
351.81	-1.44
352.066	-3.33
352.322	-2.88
352.578	-2.86
352.834	-4.25
353.09	-4.05
353.346	-4.69
353.602	-5.57
353.858	-6.37
354.114	-7.69
354.369	-6.15
354.625	-3.27
354.881	-3.8
355.137	-1.95
355.393	-2.3
355.649	-2
355.905	-0.89
356.16	-1.89
356.416	-0.2
356.672	-5.87
356.928	-5.01
357.183	-7.21
357.439	-6.94
357.695	-8.65
357.951	-5.35
358.206	-6.52
358.462	-7.93
358.718	-8.67
358.973	-6.54
359.229	-5.87
359.484	-5.08
359.74	-0.71
359.996	-0.28
360.251	3.81
360.507	4.3
360.762	5.97
361.018	7.55
361.273	6.65
361.529	7.49
361.784	6.98
362.04	8.23
362.295	7.11
362.55	5.62
362.806	6.57
363.061	7.98
363.316	9.96
363.572	10.9
363.827	11.99
364.082	9.73
364.338	7.88
364.593	8.09
364.848	9.24
365.104	9.33
365.359	12.51
365.614	12.18
365.869	9.95
366.124	11.04
366.38	10.14
366.635	11.58
366.89	12.3
367.145	11.01
367.4	14.49
367.655	13.42
367.91	13.47
368.165	10.97
368.42	9.13
368.675	8.84
368.93	9.89
369.185	6.85
369.44	7.47
369.695	10.39
369.95	9.7
370.205	10.12
370.46	9.37
370.715	8.96
370.97	9.58
371.225	9.01
371.48	9.34
371.734	9.71
371.989	11.23
372.244	11.91
372.499	13.85
372.754	11.99
373.008	7.66
373.263	3.86
373.518	8.16
373.773	6.42
374.027	6.03
374.282	8.5
374.537	9.75
374.791	10.8
375.046	9.72
375.301	8.04
375.555	6.7
375.81	8.83
376.064	9.08
376.319	11.33
376.573	10.23
376.828	6.72
377.082	12.33
377.337	10.37
377.591	8.17
377.846	8.98
378.1	11.68
378.355	11.42
378.609	10.79
378.863	6.96
379.118	8.08
379.372	6.41
379.627	5.73
379.881	4.55
380.135	2.72
380.389	1.53
380.644	1.72
380.898	5.45
381.152	5.5
381.407	4.72
381.661	7.58
381.915	8.59
382.169	8.24
382.423	7.24
382.677	4.19
382.932	4.51
383.186	5.68
383.44	5.68
383.694	8.08
383.948	5.69
384.202	4.42
384.456	6.69
384.71	5.88
384.964	3.21
385.218	5.06
385.472	5.03
385.726	3.96
385.98	2.91
386.234	3.31
386.488	1.26
386.742	3.3
386.996	1.15
387.249	3.3
387.503	5.45
387.757	7.23
388.011	8.76
388.265	9.13
388.518	10.75
388.772	11.61
389.026	13.58
389.28	11.02
389.533	9.29
389.787	11.48
390.041	10.29
390.295	8.96
390.548	8.21
390.802	11.54
391.055	10.31
391.309	10.85
391.563	6.09
391.816	8.67
392.07	8.68
392.323	9.01
392.577	12.03
392.83	13.11
393.084	17.68
393.337	21.66
393.591	22.51
393.844	24.13
394.098	26.54
394.351	31.34
394.604	32.87
394.858	34.94
395.111	34.37
395.364	31.3
395.618	32.51
395.871	31.02
396.124	30.86
396.378	30.04
396.631	31.2
396.884	27.52
397.137	26.68
397.391	28.37
397.644	24.78
397.897	24.04
398.15	25
398.403	28.37
398.657	26.05
398.91	25.13
399.163	24.5
399.416	25.91
399.669	23.78
399.922	21.83
400.175	19.82
400.428	19.41
400.681	19.95
400.934	17.17
401.187	15
401.44	16.05
401.693	13.64
401.946	10.59
402.199	5.77
402.452	4.16
402.704	1.15
402.957	1.23
403.21	3.38
403.463	2.52
403.716	3.31
403.969	4.65
404.221	4.17
404.474	5.32
404.727	8.78
404.98	11.66
405.232	11.57
405.485	15.05
405.738	17.73
405.99	18.42
406.243	19.83
406.496	23.29
406.748	22.79
407.001	22.94
407.253	22.36
407.506	21.54
407.759	22.86
408.011	20.57
408.264	19.75
408.516	20.17
408.769	16.53
409.021	17.82
409.274	17.65
409.526	19.5
409.778	19.6
410.031	21.75
410.283	21.6
410.536	26.8
410.788	24.28
411.04	24.4
411.293	25.27
411.545	25.82
411.797	24.92
412.049	25.29
412.302	24.92
412.554	25.07
412.806	23.85
413.058	22.15
413.311	20.92
413.563	18.72
413.815	18.9
414.067	15.28
414.319	14.11
414.571	16.48
414.823	15.01
415.075	14.64
415.328	15.76
415.58	20.37
415.832	22.04
416.084	23.52
416.336	22.2
416.588	26.38
416.84	24.32
417.091	25.82
417.343	21.57
417.595	23.76
417.847	25.53
418.099	26.76
418.351	26.15
418.603	29.57
418.855	29.44
419.106	30.12
419.358	30.86
419.61	30.79
419.862	30
420.114	27.86
420.365	28.56
420.617	28.98
420.869	27.1
421.12	27
421.372	29.87
421.624	29.32
421.875	29.58
422.127	26.45
422.379	26.26
422.63	28.79
422.882	27.87
423.133	28.26
423.385	26.62
423.636	27.89
423.888	28.37
424.139	30.74
424.391	27.37
424.642	26.29
424.894	24.22
425.145	25.4
425.396	22.64
425.648	24.54
425.899	22.26
426.151	20.91
426.402	18.5
426.653	18.63
426.905	16.9
427.156	14.26
427.407	13.94
427.658	13.82
427.91	13.65
428.161	13.13
428.412	14.46
428.663	16.32
428.914	16.61
429.166	17.63
429.417	17.84
429.668	16.04
429.919	14.35
430.17	14.06
430.421	13.91
430.672	16.41
430.923	16.79
431.174	15.24
431.425	14.28
431.676	13.91
431.927	11.09
432.178	13.55
432.429	14.11
432.68	14.81
432.931	18.2
433.182	20.75
433.433	18.27
433.683	20.05
433.934	19.72
434.185	18.99
434.436	18.72
434.687	19.13
434.937	21.66
435.188	21.13
435.439	20.57
435.69	21.32
435.94	19.76
436.191	20.28
436.442	20.73
436.692	19.78
436.943	16.48
437.194	14.81
437.444	18.16
437.695	21.63
437.945	22.18
438.196	20.4
438.447	19.07
438.697	18.71
438.948	17.48
439.198	15.17
439.449	11.08
439.699	11.2
439.949	10.78
440.2	9.86
440.45	9.64
440.701	8.21
440.951	6.57
441.201	5.82
441.452	4.16
441.702	4.19
441.952	6.27
442.203	5.96
442.453	5.19
442.703	4.95
442.953	4.77
443.204	7.01
443.454	4.88
443.704	5.32
443.954	2.49
444.204	2.23
444.455	3.9
444.705	4.74
444.955	5.19
445.205	3.64
445.455	2.27
445.705	1.66
445.955	1.81
446.205	2.73
446.455	2.89
446.705	4.03
446.955	5.77
447.205	8.9
447.455	10.87
447.705	9.09
447.955	7.31
448.205	8.41
448.454	8.3
448.704	10.58
448.954	10.64
449.204	11.87
449.454	12.91
449.704	11.61
449.953	11.79
450.203	14.18
450.453	12.91
450.703	14.66
450.952	13.61
451.202	15.37
451.452	14.95
451.701	17.55
451.951	20.99
452.201	20.32
452.45	20.74
452.7	22.33
452.949	22.99
453.199	22.15
453.448	24.49
453.698	25.59
453.947	24.08
454.197	23.01
454.446	21.42
454.696	24.24
454.945	23.42
455.195	21.68
455.444	22.24
455.693	26.68
455.943	25.16
456.192	24.57
456.442	24.6
456.691	24.75
456.94	24.37
457.189	22.02
457.439	23.98
457.688	25.72
457.937	25.69
458.186	26.37
458.436	26.5
458.685	26.86
458.934	25.45
459.183	25.02
459.432	26.63
459.681	26.38
459.93	23.99
460.179	22.86
460.429	22.21
460.678	24.97
460.927	27.78
461.176	25.87
461.425	26.56
461.674	29.87
461.923	30.17
462.172	30.26
462.42	28.03
462.669	31.48
462.918	31.5
463.167	31.17
463.416	29.81
463.665	30.52
463.914	31.33
464.162	29.81
464.411	30.2
464.66	31.85
464.909	31.85
465.158	31.57
465.406	30.81
465.655	31.08
465.904	33.81
466.152	33.82
466.401	34.57
466.65	37.56
466.898	36.75
467.147	32.03
467.395	31.12
467.644	34.5
467.893	35.11
468.141	33.18
468.39	30.28
468.638	28.52
468.887	26.8
469.135	25.2
469.384	24.42
469.632	25.96
469.88	26.37
470.129	27.97
470.377	23.82
470.626	26.56
470.874	28.2
471.122	27.9
471.371	26.52
471.619	26.52
471.867	28.63
472.115	28.32
472.364	26.47
472.612	28.79
472.86	27.49
473.108	28.53
473.356	29.38
473.605	27.43
473.853	24.91
474.101	24.07
474.349	22.02
474.597	24.11
474.845	24.08
475.093	22.25
475.341	20.11
475.589	19.85
475.837	23.44
476.085	24.79
476.333	22.66
476.581	25.36
476.829	25.83
477.077	28.4
477.325	27
477.573	29.23
477.821	29.03
478.069	30.89
478.317	30.28
478.564	32.41
478.812	31.12
479.06	30.47
479.308	28.7
479.555	28.69
479.803	27.41
480.051	29.69
480.299	29.3
480.546	29.58
480.794	26.32
481.042	25.37
481.289	24.3
481.537	26.16
481.784	26.03
482.032	28.54
482.28	28.99
482.527	29.04
482.775	29.77
483.022	30.96
483.27	32.76
483.517	34.6
483.765	33.85
484.012	34.23
484.259	31.37
484.507	33.3
484.754	32.43
485.002	33.51
485.249	31.63
485.496	33.36
485.744	31.96
485.991	30.85
486.238	28.36
486.486	31.56
486.733	33.91
486.98	37.75
487.227	36.05
487.474	39.07
487.722	40.83
487.969	37.95
488.216	37.44
488.463	37.75
488.71	36.27
488.957	35.72
489.204	35.23
489.451	35.76
489.699	35.33
489.946	32.63
490.193	32.89
490.44	32.49
490.687	33.11
490.934	29.13
491.18	24.93
491.427	25.52
491.674	27.79
491.921	27.92
492.168	27.21
492.415	25.05
492.662	25.72
492.909	27.61
493.155	25.98
493.402	25.39
493.649	23.83
493.896	26
494.142	22.08
494.389	20.62
494.636	18.37
494.883	16.42
495.129	13.28
495.376	9.75
495.623	11.94
495.869	12.87
496.116	13.97
496.362	15.47
496.609	18.13
496.855	23.12
497.102	21.89
497.348	21.52
497.595	22.97
497.841	26.73
498.088	25.33
498.334	24.48
498.581	25.66
498.827	25.97
499.074	26.57
499.32	28.63
499.566	32.56
499.813	32.77
500.059	30.5
500.305	30.21
500.552	29.43
500.798	30.67
501.044	34.65
501.29	33.65
501.537	29.7
501.783	33.02
502.029	35.7
502.275	32.71
502.521	32.06
502.767	34.35
503.013	39.07
503.26	37.7
503.506	35.44
503.752	37.13
503.998	35.3
504.244	36.81
504.49	33.71
504.736	36.05
504.982	34.31
505.228	37.39
505.474	36.99
505.72	39.62
505.966	39.03
506.211	41.4
506.457	43.16
506.703	41.52
506.949	38.85
507.195	36.96
507.441	33.57
507.686	37.48
507.932	37.22
508.178	38.05
508.424	34.49
508.669	32.78
508.915	34.35
509.161	37.25
509.406	36.98
509.652	37.17
509.898	40.22
510.143	42.09
510.389	40.93
510.634	36.38
510.88	38.89
511.125	42.24
511.371	42.44
511.616	44.4
511.862	41.95
512.107	39.56
512.353	40.58
512.598	42.3
512.844	39.58
513.089	38.26
513.335	37.94
513.58	38.18
513.825	38.54
514.071	36.59
514.316	37.1
514.561	38.54
514.806	38.71
515.052	42.15
515.297	40.15
515.542	40.6
515.787	42.48
516.033	44.84
516.278	45.23
516.523	45.24
516.768	45.46
517.013	44.39
517.258	42.21
517.503	43.1
517.748	42.64
517.993	42.51
518.238	43.34
518.483	42.74
518.728	41.95
518.973	40.87
519.218	39.82
519.463	39.62
519.708	39.41
519.953	37.07
520.198	37.49
520.443	38.99
520.688	41.75
520.933	41.79
521.177	42.15
521.422	39.86
521.667	42.17
521.912	41.66
522.157	38.73
522.401	40.62
522.646	39.24
522.891	41.09
523.135	42.04
523.38	42.29
523.625	41.65
523.869	43.64
524.114	44.4
524.358	43.45
524.603	42.84
524.848	41.71
525.092	39.75
525.337	41.45
525.581	42.32
525.826	44.41
526.07	44.67
526.315	45.44
526.559	43.53
526.803	43.3
527.048	46.48
527.292	46.88
527.537	48.2
527.781	48.49
528.025	45.69
528.269	46.64
528.514	46.56
528.758	45.32
529.002	45.56
529.247	49.13
529.491	48.3
529.735	52.74
529.979	52.94
530.223	54.74
530.467	51.45
530.712	49.28
530.956	46.89
531.2	47.59
531.444	43.85
531.688	45.6
531.932	44.22
532.176	45.77
532.42	48.09
532.664	50.26
532.908	49.16
533.152	47.74
533.396	46.49
533.64	45.58
533.884	43.2
534.128	43.58
534.371	44.49
534.615	44.71
534.859	44.36
535.103	43.21
535.347	42.74
535.59	45.95
535.834	42.25
536.078	43.7
536.322	46.1
536.565	49.62
536.809	47.37
537.053	49.9
537.296	47.86
537.54	47.09
537.784	46.75
538.027	49.52
538.271	49.24
538.514	47.38
538.758	47.04
539.001	46.49
539.245	46.45
539.488	47.59
539.732	49.42
539.975	49.46
540.219	51.11
540.462	51.45
540.706	53.16
540.949	52.33
541.192	52.6
541.436	57.76
541.679	62.58
541.922	62.88
542.166	58.57
542.409	58.52
542.652	59.08
542.895	58.2
543.139	58.05
543.382	61.87
543.625	62.21
543.868	61.77
544.111	59.82
544.354	58.94
544.598	57.21
544.841	57.65
545.084	56.09
545.327	55.29
545.57	55.75
545.813	57.81
546.056	58.76
546.299	59.06
546.542	61.44
546.785	64.17
547.028	65.67
547.271	65.47
547.514	63.92
547.756	61.66
547.999	63.14
548.242	65.67
548.485	64.36
548.728	65.1
548.971	61.96
549.213	61.66
549.456	60.82
549.699	62.81
549.942	63.19
550.184	63.12
550.427	63.77
550.67	62.82
550.912	58.36
551.155	58.39
551.398	58.44
551.64	57.45
551.883	57.9
552.125	57.03
552.368	56.82
552.61	55.85
552.853	58.11
553.095	56.79
553.338	56.06
553.58	56.72
553.823	55.91
554.065	58.1
554.308	52.39
554.55	48.83
554.792	45.4
555.035	45.82
555.277	44.45
555.519	43.82
555.762	40.11
556.004	40.66
556.246	37.45
556.488	38.61
556.731	34.7
556.973	36.22
557.215	35.5
557.457	35.84
557.699	37.81
557.941	36.7
558.183	36.53
558.426	40.2
558.668	37.88
558.91	38.35
559.152	39.92
559.394	39.32
559.636	41.77
559.878	43.77
560.12	42.99
560.362	44.1
560.604	45.23
560.845	45.36
