Data from led_4000k_2_FLMT021711__21__17-35-10-831.txt Node

Date: Tue Nov 05 17:35:10 CET 2024
User: Etudiants TP
Spectrometer: FLMT02171
Trigger mode: 0
Integration Time (sec): 1.000000E-1
Scans to average: 5
Electric dark correction enabled: true
Nonlinearity correction enabled: true
Boxcar width: 15
XAxis mode: Wavelengths
Number of Pixels in Spectrum: 3648
>>>>>Begin Spectral Data<<<<<
194.658	-64.97
194.923	-60.92
195.188	-54.45
195.453	-53.88
195.717	-49.34
195.982	-47.37
196.247	-45.05
196.512	-47.61
196.777	-45.32
197.042	-43.76
197.307	-43.39
197.572	-39.03
197.837	-39.27
198.101	-36.03
198.366	-33.67
198.631	-32.99
198.896	-27.89
199.161	-21.25
199.425	-14.34
199.69	-3.97
199.955	-5.23
200.22	-9.28
200.484	-8.96
200.749	-11.22
201.014	-9.96
201.278	-9.61
201.543	-8.43
201.807	-8.48
202.072	-8.03
202.337	-8.07
202.601	-7.98
202.866	-10.01
203.13	-9.64
203.395	-12.28
203.659	-13.15
203.924	-14.45
204.189	-15.05
204.453	-14.77
204.717	-13.85
204.982	-13.35
205.246	-12.57
205.511	-11.89
205.775	-12.18
206.04	-6.85
206.304	-7.2
206.568	-6.2
206.833	-5.63
207.097	-3.54
207.361	-1.68
207.626	2.5
207.89	2.79
208.154	3.39
208.419	6.46
208.683	5.05
208.947	8.82
209.211	8.63
209.476	8.9
209.74	8.49
210.004	7.39
210.268	7.75
210.532	10.66
210.796	9.56
211.061	9.41
211.325	8.57
211.589	6.97
211.853	8.31
212.117	8.16
212.381	8.82
212.645	9.05
212.909	9.62
213.173	6.21
213.437	7.55
213.701	8.89
213.965	8.05
214.229	3.87
214.493	3.86
214.757	3.07
215.021	3.06
215.285	6.25
215.549	7.3
215.813	3.92
216.077	3.77
216.34	6.57
216.604	6.01
216.868	7.42
217.132	8.13
217.396	7.35
217.659	7.39
217.923	3.32
218.187	3.98
218.451	2.57
218.714	0.65
218.978	2.96
219.242	6.36
219.505	8.36
219.769	10.05
220.033	10.15
220.296	11.76
220.56	13.25
220.824	11.17
221.087	13.03
221.351	13.22
221.614	12.44
221.878	13.19
222.142	12.43
222.405	12.04
222.669	13.3
222.932	9.66
223.196	8.44
223.459	5.95
223.722	7.72
223.986	5.76
224.249	4.24
224.513	4.1
224.776	2.47
225.04	0.92
225.303	0.24
225.566	0.29
225.83	1.87
226.093	6.13
226.356	4.77
226.62	4.37
226.883	5.39
227.146	4.77
227.409	3.21
227.673	0.95
227.936	0.21
228.199	0.36
228.462	-2.6
228.725	-3.22
228.989	-2.93
229.252	-2.28
229.515	4.36
229.778	2.17
230.041	0.72
230.304	-0.38
230.567	0.46
230.83	-1.49
231.093	1.78
231.356	1.1
231.619	6.45
231.882	4.22
232.145	9
232.408	7.31
232.671	5.5
232.934	6.27
233.197	5.09
233.46	4.62
233.723	5.79
233.986	4.54
234.249	1.81
234.512	3.79
234.775	6.75
235.037	5.9
235.3	6.49
235.563	7.11
235.826	8.06
236.089	10.96
236.351	10.5
236.614	14.37
236.877	13.98
237.14	15.99
237.402	15.09
237.665	7.92
237.928	8.11
238.19	5.27
238.453	6.88
238.716	6.68
238.978	5.83
239.241	5.25
239.503	8.61
239.766	4.31
240.029	3.06
240.291	3.78
240.554	5.17
240.816	5.17
241.079	4.47
241.341	4.5
241.604	3.13
241.866	1.35
242.129	3.27
242.391	5.27
242.653	3.9
242.916	3.18
243.178	2.8
243.441	3.98
243.703	2.94
243.965	1.12
244.228	0.92
244.49	1.47
244.752	2.01
245.015	2.51
245.277	4.13
245.539	3.43
245.801	5.03
246.064	5.97
246.326	7.15
246.588	7.45
246.85	9.44
247.112	11.12
247.374	12.35
247.637	13.92
247.899	13.44
248.161	14.35
248.423	9.85
248.685	9.25
248.947	8.86
249.209	9.4
249.471	10.12
249.733	11.74
249.995	8.58
250.257	7.16
250.519	5.12
250.781	9.65
251.043	8.3
251.305	10.09
251.567	10.57
251.829	11.23
252.091	11.41
252.353	7.2
252.615	8.28
252.876	4.99
253.138	2.84
253.4	-0.37
253.662	0.92
253.924	3.66
254.185	4.37
254.447	4.97
254.709	4.64
254.971	5.56
255.232	6.69
255.494	4.33
255.756	1.93
256.017	1.46
256.279	0.99
256.541	1.49
256.802	2.58
257.064	4.88
257.326	4.47
257.587	5.98
257.849	6.22
258.11	10.4
258.372	10.93
258.633	12.52
258.895	11.09
259.156	9.02
259.418	7.89
259.679	4.52
259.941	1.78
260.202	3.65
260.464	6.01
260.725	4.64
260.987	4.41
261.248	4.56
261.509	5.57
261.771	4.5
262.032	5.49
262.293	3.63
262.555	2.69
262.816	0.46
263.077	-3.08
263.338	-5.81
263.6	-4.9
263.861	-5.88
264.122	-5.16
264.383	-2.65
264.645	-1.25
264.906	-2.56
265.167	-3.02
265.428	-4.6
265.689	-3.4
265.95	-5.85
266.211	-4.29
266.473	-5.33
266.734	-8.15
266.995	-12.86
267.256	-9.8
267.517	-7.33
267.778	-5.47
268.039	-3.56
268.3	-4.74
268.561	-7.23
268.822	-3.54
269.083	-4.66
269.344	-5.81
269.604	-7.7
269.865	-7.43
270.126	-11.46
270.387	-9.28
270.648	-7.48
270.909	-6.76
271.17	-6.59
271.43	-8.78
271.691	-11.72
271.952	-13.04
272.213	-12.11
272.473	-14.42
272.734	-13.57
272.995	-12.47
273.256	-12.23
273.516	-9.34
273.777	-11.95
274.038	-8.86
274.298	-11.38
274.559	-10.76
274.82	-5.87
275.08	-2.63
275.341	-3.17
275.601	-4.85
275.862	-6.12
276.122	-6.2
276.383	-6.33
276.643	-4.59
276.904	-6.96
277.164	-3.77
277.425	-2.95
277.685	1.74
277.946	3.47
278.206	4.6
278.467	4.65
278.727	4.1
278.987	3.79
279.248	3.1
279.508	5.17
279.768	9.47
280.029	11.09
280.289	6.81
280.549	5.28
280.81	5.24
281.07	3.88
281.33	5.43
281.59	3.47
281.851	5.27
282.111	3.91
282.371	2.68
282.631	4.16
282.891	1.86
283.151	0.58
283.412	-1.1
283.672	-0.72
283.932	0.59
284.192	3.16
284.452	1.72
284.712	0.41
284.972	-0.26
285.232	-1.55
285.492	0.68
285.752	-2.37
286.012	2.01
286.272	4.48
286.532	2.52
286.792	3.59
287.052	5.72
287.312	7.04
287.571	6.61
287.831	5.25
288.091	3.95
288.351	4.46
288.611	8.82
288.871	7.75
289.13	8.78
289.39	4.33
289.65	4.98
289.91	3.12
290.17	6.21
290.429	9.03
290.689	5.28
290.949	3.8
291.208	5.05
291.468	9.24
291.728	10.41
291.987	11.2
292.247	8.75
292.506	11.94
292.766	14.79
293.026	13.31
293.285	12.94
293.545	15.14
293.804	15.74
294.064	11.79
294.323	8.04
294.583	9.99
294.842	9.59
295.102	8.07
295.361	7.87
295.621	7.39
295.88	7.93
296.139	6.94
296.399	9.38
296.658	4.32
296.917	3.61
297.177	-0.35
297.436	1.61
297.695	0.88
297.955	3.4
298.214	0.93
298.473	3.1
298.732	6.24
298.992	7.91
299.251	8.05
299.51	3.54
299.769	2.9
300.028	2.96
300.287	4.71
300.547	4.59
300.806	2.23
301.065	5.95
301.324	7.84
301.583	3.56
301.842	-0.52
302.101	-3.29
302.36	-3.08
302.619	-4.17
302.878	-3.85
303.137	-6.05
303.396	-4.77
303.655	-1.76
303.914	-4.19
304.173	-3.31
304.432	-4.67
304.691	-0.94
304.95	-2.82
305.208	3.91
305.467	4.01
305.726	4.35
305.985	4.64
306.244	5.8
306.503	3.22
306.761	2.31
307.02	-0.71
307.279	-1.05
307.537	0.21
307.796	-3.24
308.055	-5.92
308.314	-5.13
308.572	-6.86
308.831	-5.45
309.09	-4.91
309.348	-3.76
309.607	-4.25
309.865	0.41
310.124	1.71
310.382	5.1
310.641	5.27
310.9	3.93
311.158	6.15
311.417	5.23
311.675	5.47
311.933	6.62
312.192	7.57
312.45	7.64
312.709	5.88
312.967	6.41
313.226	5.76
313.484	5.38
313.742	3.46
314.001	0.59
314.259	-0.57
314.517	0.61
314.776	2.9
315.034	5.87
315.292	4.23
315.55	2.08
315.809	2.11
316.067	2.98
316.325	-1.41
316.583	-0.21
316.841	-1.82
317.1	-4.47
317.358	-8.25
317.616	-8.22
317.874	-8.87
318.132	-10.6
318.39	-11.1
318.648	-11.97
318.906	-13.68
319.164	-14.48
319.422	-15.12
319.68	-16.69
319.938	-16.79
320.196	-15.85
320.454	-13.6
320.712	-12.43
320.97	-11.88
321.228	-14.82
321.486	-13.71
321.744	-12.08
322.002	-9.46
322.26	-10.95
322.517	-10.49
322.775	-13.86
323.033	-14.54
323.291	-12.19
323.549	-9.82
323.806	-6.1
324.064	-6.07
324.322	-2.31
324.58	-3.81
324.837	-1.62
325.095	-5.16
325.353	-2.82
325.61	-0.09
325.868	-0.36
326.126	2.39
326.383	1.4
326.641	1.26
326.898	2.95
327.156	2.61
327.413	3.64
327.671	3.32
327.928	4.35
328.186	4.22
328.443	2.15
328.701	5.85
328.958	6.16
329.216	6.97
329.473	5.55
329.731	6.35
329.988	6.26
330.245	8.72
330.503	9.03
330.76	8.6
331.017	10.4
331.275	7.63
331.532	7.5
331.789	3.41
332.047	2.6
332.304	-1.04
332.561	0.85
332.818	0.77
333.076	3.7
333.333	4.58
333.59	3.07
333.847	4.02
334.104	2.69
334.361	2.08
334.618	2.38
334.876	1.03
335.133	2.52
335.39	-0.44
335.647	0.48
335.904	-2.11
336.161	-4.65
336.418	-4.92
336.675	-8.99
336.932	-6.7
337.189	-6.54
337.446	-6.94
337.703	-7.67
337.96	-12.16
338.216	-12.41
338.473	-14.85
338.73	-14.06
338.987	-15.06
339.244	-10.44
339.501	-12.45
339.757	-9.4
340.014	-6.94
340.271	-4.79
340.528	-5.81
340.785	-2.78
341.041	-1.53
341.298	-5.26
341.555	-4.6
341.811	-5.69
342.068	-7.85
342.325	-8.43
342.581	-7.04
342.838	-5.07
343.094	-5.91
343.351	-4.37
343.608	-6.82
343.864	-3.67
344.121	-1.96
344.377	-1.65
344.634	-3.25
344.89	-5.43
345.147	-6.32
345.403	-6.42
345.66	-6.86
345.916	-5.07
346.172	-6.44
346.429	-8.56
346.685	-10.04
346.942	-10.61
347.198	-16.03
347.454	-15.24
347.711	-17.33
347.967	-21.29
348.223	-20.6
348.48	-20.81
348.736	-17.6
348.992	-18.38
349.248	-14.57
349.504	-13.86
349.761	-13.29
350.017	-12.99
350.273	-12.95
350.529	-13.65
350.785	-13.85
351.041	-13.83
351.297	-12.58
351.554	-13.69
351.81	-16.12
352.066	-17.11
352.322	-16.01
352.578	-15.8
352.834	-15.15
353.09	-14.69
353.346	-15.07
353.602	-15.74
353.858	-15.51
354.114	-16.14
354.369	-13.85
354.625	-10.92
354.881	-11.86
355.137	-8.98
355.393	-9.32
355.649	-6.98
355.905	-6.08
356.16	-5.91
356.416	-5.62
356.672	-12.56
356.928	-12.01
357.183	-13.57
357.439	-14.5
357.695	-15.58
357.951	-10.73
358.206	-12.1
358.462	-12.87
358.718	-14.48
358.973	-13.61
359.229	-14.91
359.484	-14.28
359.74	-12.38
359.996	-11.45
360.251	-9.29
360.507	-9.3
360.762	-10.49
361.018	-8.4
361.273	-9.53
361.529	-9.74
361.784	-9.82
362.04	-8.83
362.295	-10.06
362.55	-10.1
362.806	-7.65
363.061	-7.06
363.316	-5.82
363.572	-5.66
363.827	-2.31
364.082	-5.62
364.338	-5.14
364.593	-5.33
364.848	-5.74
365.104	-6.91
365.359	-4.36
365.614	-4.78
365.869	-7.96
366.124	-6.8
366.38	-8.02
366.635	-5.54
366.89	-5.81
367.145	-5.15
367.4	-1.15
367.655	-0.94
367.91	-1.71
368.165	-3.63
368.42	-4.7
368.675	-3.59
368.93	-4.81
369.185	-5.67
369.44	-5.21
369.695	-2.53
369.95	-2.23
370.205	-1.82
370.46	-3.1
370.715	-3.37
370.97	-3.19
371.225	-3.76
371.48	-3.3
371.734	-4.55
371.989	-2.98
372.244	-4.85
372.499	-3.19
372.754	-4.28
373.008	-6.25
373.263	-10.93
373.518	-8.36
373.773	-10.12
374.027	-9.66
374.282	-6.25
374.537	-6.32
374.791	-3.26
375.046	-4.65
375.301	-6.05
375.555	-7.32
375.81	-5.84
376.064	-4.62
376.319	-2.13
376.573	-3.88
376.828	-5.43
377.082	-0.83
377.337	-2.51
377.591	-5.19
377.846	-5.9
378.1	-3.09
378.355	-2.99
378.609	-5.31
378.863	-8.32
379.118	-5.89
379.372	-7.67
379.627	-8.28
379.881	-9.52
380.135	-8.48
380.389	-8.92
380.644	-8.91
380.898	-7.69
381.152	-6.58
381.407	-6.72
381.661	-4.14
381.915	-2.72
382.169	-3.84
382.423	-5.02
382.677	-10.13
382.932	-8.58
383.186	-7.73
383.44	-6.18
383.694	-4
383.948	-5.56
384.202	-6.23
384.456	-3.33
384.71	-1.84
384.964	-3.73
385.218	-2.51
385.472	-1.69
385.726	-2.73
385.98	-4.75
386.234	-4.52
386.488	-6.48
386.742	-5.34
386.996	-7.58
387.249	-7.28
387.503	-5.76
387.757	-4.41
388.011	-3.75
388.265	-3.85
388.518	-1.62
388.772	-0.49
389.026	1.6
389.28	-0.26
389.533	-1.61
389.787	-0.17
390.041	-1.64
390.295	-1.69
390.548	-1.31
390.802	0.73
391.055	-1.49
391.309	-2.64
391.563	-4.81
391.816	-4.29
392.07	-4.49
392.323	-3.41
392.577	-3.24
392.83	-2.14
393.084	5.32
393.337	8.12
393.591	9.52
393.844	11.11
394.098	14.4
394.351	18.87
394.604	21.06
394.858	22.78
395.111	24.64
395.364	21.77
395.618	22.36
395.871	20.48
396.124	19.82
396.378	18.7
396.631	19.58
396.884	15.85
397.137	14.72
397.391	15.38
397.644	12.4
397.897	11.9
398.15	13.47
398.403	16.73
398.657	14.72
398.91	15.03
399.163	15.7
399.416	15.16
399.669	13.38
399.922	10.39
400.175	8.58
400.428	7.99
400.681	7.48
400.934	1.5
401.187	0.35
401.44	0.99
401.693	-1.82
401.946	-4.08
402.199	-9.02
402.452	-9.98
402.704	-14.18
402.957	-15.9
403.21	-13.17
403.463	-13.79
403.716	-13.31
403.969	-11.76
404.221	-12.58
404.474	-12.02
404.727	-7.58
404.98	-4.9
405.232	-3.62
405.485	-1.35
405.738	2.21
405.99	2.27
406.243	1.64
406.496	4.65
406.748	4.06
407.001	2.99
407.253	3.34
407.506	4.15
407.759	7.33
408.011	4.39
408.264	4.64
408.516	4.89
408.769	2.84
409.021	4.05
409.274	4
409.526	7.72
409.778	6.38
410.031	10.59
410.283	9.87
410.536	15.47
410.788	14.36
411.04	13.18
411.293	14.84
411.545	15.9
411.797	16.66
412.049	16.09
412.302	17.66
412.554	18
412.806	16.18
413.058	14.45
413.311	14.49
413.563	12.22
413.815	12.51
414.067	12.43
414.319	11.33
414.571	13.12
414.823	10.37
415.075	10.31
415.328	10.13
415.58	12.35
415.832	14.62
416.084	15.13
416.336	13.69
416.588	18.25
416.84	14.95
417.091	17.52
417.343	12.71
417.595	15.45
417.847	17.25
418.099	18.46
418.351	17.55
418.603	20.57
418.855	23.34
419.106	23.71
419.358	24.31
419.61	22.78
419.862	23.83
420.114	21.5
420.365	21.21
420.617	21.9
420.869	20.87
421.12	20.41
421.372	22.78
421.624	21.83
421.875	21.55
422.127	18.22
422.379	18.93
422.63	22.89
422.882	20.99
423.133	21.5
423.385	21.17
423.636	22.89
423.888	25.46
424.139	28.48
424.391	25.21
424.642	25.16
424.894	23.53
425.145	24.03
425.396	20.9
425.648	21.77
425.899	20.47
426.151	21.59
426.402	19.57
426.653	18.24
426.905	17.14
427.156	14.17
427.407	15.3
427.658	15.87
427.91	13.84
428.161	12.57
428.412	14.67
428.663	15.33
428.914	15.26
429.166	14.87
429.417	14.93
429.668	13.55
429.919	12.71
430.17	10.61
430.421	12.3
430.672	16.61
430.923	17.13
431.174	16.54
431.425	16.37
431.676	14.92
431.927	11.04
432.178	14.35
432.429	14.91
432.68	14.58
432.931	18.04
433.182	21.14
433.433	17.99
433.683	19.13
433.934	18.1
434.185	19
434.436	17.45
434.687	18.14
434.937	22.49
435.188	21.46
435.439	20.39
435.69	22.63
435.94	22.55
436.191	23.28
436.442	24.07
436.692	24.91
436.943	22.99
437.194	23.42
437.444	27.63
437.695	31.12
437.945	33.41
438.196	31.66
438.447	32.02
438.697	32.55
438.948	32.44
439.198	30.69
439.449	28
439.699	31.26
439.949	31.91
440.2	32.7
440.45	35.85
440.701	36.44
440.951	35.83
441.201	38.62
441.452	39.85
441.702	40.43
441.952	41.19
442.203	42.05
442.453	42.43
442.703	43
442.953	44.83
443.204	48.07
443.454	47.76
443.704	49.25
443.954	47.14
444.204	50.24
444.455	51.17
444.705	54.85
444.955	55.51
445.205	55.46
445.455	55.31
445.705	57.67
445.955	59.15
446.205	59.46
446.455	62.89
446.705	66.52
446.955	69.86
447.205	73.57
447.455	76.95
447.705	75.35
447.955	77.01
448.205	78.17
448.454	78.86
448.704	83.14
448.954	83.21
449.204	85.6
449.454	87.5
449.704	87.86
449.953	91.93
450.203	95.3
450.453	95.12
450.703	98.03
450.952	98.52
451.202	101.96
451.452	103.6
451.701	107.65
451.951	111.93
452.201	113.38
452.45	113.43
452.7	117.44
452.949	117.6
453.199	118.4
453.448	120.16
453.698	122.9
453.947	122.7
454.197	122.66
454.446	120.86
454.696	124.04
454.945	125.22
455.195	123.57
455.444	126.04
455.693	128.91
455.943	128.26
456.192	130.91
456.442	130.29
456.691	130.98
456.94	130.48
457.189	130.24
457.439	132.82
457.688	132.84
457.937	132.43
458.186	133.32
458.436	133.92
458.685	133.95
458.934	132.28
459.183	131.52
459.432	133.35
459.681	133
459.93	131.34
460.179	130.9
460.429	126.9
460.678	129.33
460.927	132
461.176	130.38
461.425	128.33
461.674	130.1
461.923	127.81
462.172	125.8
462.42	123.33
462.669	123.73
462.918	122.15
463.167	120.35
463.416	118.12
463.665	118.08
463.914	117.41
464.162	114.46
464.411	114.74
464.66	115.39
464.909	112.91
465.158	111.69
465.406	110.13
465.655	110.87
465.904	111.15
466.152	109.67
466.401	109.94
466.65	111.37
466.898	109
467.147	104.14
467.395	102.04
467.644	104.22
467.893	102.73
468.141	102.91
468.39	100.31
468.638	98.51
468.887	96.06
469.135	94.82
469.384	92.99
469.632	93.1
469.88	94.3
470.129	95.1
470.377	90.43
470.626	94.14
470.874	95.62
471.122	94.94
471.371	92.15
471.619	89.76
471.867	92.62
472.115	91.11
472.364	88.79
472.612	90.65
472.86	90
473.108	90.58
473.356	89.85
473.605	88.82
473.853	86.07
474.101	84.96
474.349	82.47
474.597	85.92
474.845	83.82
475.093	82.15
475.341	79.43
475.589	79.64
475.837	80.57
476.085	80.83
476.333	77.47
476.581	78.13
476.829	77.39
477.077	81.17
477.325	81.63
477.573	81.55
477.821	78.7
478.069	80.16
478.317	79.21
478.564	81.05
478.812	78.62
479.06	76.85
479.308	75.21
479.555	74.44
479.803	74.25
480.051	75.71
480.299	74.18
480.546	74.43
480.794	73.33
481.042	74.11
481.289	72.77
481.537	74.95
481.784	74.38
482.032	78.21
482.28	77.45
482.527	78.01
482.775	77.98
483.022	78.5
483.27	80.31
483.517	82.99
483.765	82.89
484.012	84.31
484.259	82.99
484.507	86.27
484.754	85.58
485.002	84.99
485.249	84.15
485.496	88.04
485.744	88.32
485.991	85.63
486.238	83.7
486.486	87.63
486.733	89.77
486.98	92.77
487.227	91.39
487.474	92.44
487.722	96.01
487.969	95.29
488.216	94.8
488.463	94.18
488.71	92.18
488.957	92.44
489.204	92.07
489.451	91.93
489.699	91.63
489.946	87.95
490.193	87.56
490.44	87.13
490.687	88.29
490.934	87.08
491.18	83.35
491.427	83.77
491.674	86.67
491.921	87.82
492.168	86.13
492.415	83.01
492.662	84.2
492.909	86.86
493.155	84.96
493.402	83.64
493.649	83.31
493.896	84.82
494.142	81.68
494.389	81.78
494.636	80.85
494.883	79.53
495.129	77.92
495.376	73.94
495.623	76.88
495.869	79.16
496.116	80.91
496.362	82.31
496.609	86.6
496.855	91.34
497.102	92.66
497.348	90.54
497.595	93.16
497.841	97.66
498.088	96.29
498.334	95.64
498.581	93.84
498.827	95.17
499.074	98.07
499.32	98.57
499.566	101.53
499.813	102.39
500.059	100.96
500.305	101.78
500.552	100.14
500.798	101.37
501.044	105.75
501.29	104.25
501.537	101.15
501.783	103.75
502.029	107.36
502.275	104.47
502.521	103.44
502.767	104.52
503.013	108.29
503.26	105.69
503.506	102.26
503.752	102.77
503.998	101.21
504.244	101.08
504.49	97.94
504.736	97.77
504.982	98.71
505.228	100.59
505.474	101.47
505.72	103.08
505.966	103.4
506.211	106.44
506.457	105.89
506.703	102.33
506.949	100.52
507.195	98.84
507.441	96.29
507.686	99.67
507.932	98.42
508.178	101.38
508.424	98.42
508.669	97.56
508.915	99.82
509.161	101.62
509.406	101.62
509.652	99.45
509.898	103.32
510.143	105.64
510.389	104.94
510.634	100.87
510.88	103.75
511.125	106.71
511.371	107.19
511.616	108.61
511.862	105.77
512.107	103.58
512.353	105.62
512.598	105.9
512.844	103.43
513.089	100.84
513.335	101.9
513.58	100.84
513.825	101.83
514.071	100.91
514.316	99.76
514.561	101.4
514.806	99.81
515.052	102.71
515.297	100.2
515.542	102.07
515.787	102.49
516.033	104.54
516.278	104.13
516.523	103.58
516.768	102.57
517.013	100.61
517.258	101.27
517.503	100.44
517.748	99.7
517.993	99.78
518.238	100.52
518.483	99.73
518.728	98.78
518.973	96.95
519.218	96.81
519.463	97.62
519.708	97.13
519.953	96.5
520.198	96.04
520.443	99.9
520.688	103.52
520.933	103.06
521.177	103.23
521.422	100.22
521.667	103.7
521.912	104.98
522.157	100.56
522.401	105.84
522.646	105.14
522.891	107.38
523.135	107.17
523.38	107.59
523.625	105.52
523.869	106.32
524.114	106.24
524.358	105.63
524.603	106.92
524.848	103.61
525.092	103.88
525.337	104.83
525.581	106.49
525.826	107.08
526.07	106.58
526.315	108.2
526.559	108.31
526.803	105.47
527.048	108.07
527.292	109.59
527.537	109.7
527.781	109.73
528.025	106.27
528.269	106.29
528.514	106.84
528.758	105.62
529.002	107.05
529.247	109.37
529.491	107.02
529.735	113
529.979	110.13
530.223	112.25
530.467	108.03
530.712	105.33
530.956	103.39
531.2	105.54
531.444	104.12
531.688	107.03
531.932	107.27
532.176	107.68
532.42	109.47
532.664	110.79
532.908	110.06
533.152	107.46
533.396	107.23
533.64	106.51
533.884	102.69
534.128	101.23
534.371	103
534.615	103.83
534.859	101.98
535.103	100.2
535.347	99.68
535.59	100.88
535.834	96.33
536.078	98.19
536.322	100.47
536.565	102.98
536.809	101.5
537.053	105.06
537.296	102.67
537.54	102.57
537.784	100.39
538.027	103
538.271	103.45
538.514	101.51
538.758	101.35
539.001	99.11
539.245	98.35
539.488	99.44
539.732	101.04
539.975	101.56
540.219	101.7
540.462	102.83
540.706	105.66
540.949	105.15
541.192	105.96
541.436	112.25
541.679	117.33
541.922	118.54
542.166	113.39
542.409	113.91
542.652	114.64
542.895	116.07
543.139	115.94
543.382	121.33
543.625	119.71
543.868	119.3
544.111	117.85
544.354	115.56
544.598	114.35
544.841	114.33
545.084	114.17
545.327	111.98
545.57	113.09
545.813	115.17
546.056	116.1
546.299	115.52
546.542	117.73
546.785	119.96
547.028	120.41
547.271	119.29
547.514	119.42
547.756	117.18
547.999	116.9
548.242	116.99
548.485	114.52
548.728	112.88
548.971	107.14
549.213	107.14
549.456	106.1
549.699	106.24
549.942	105.9
550.184	104.98
550.427	103.87
550.67	104.55
550.912	99.85
551.155	101.31
551.398	100.1
551.64	99.47
551.883	99.3
552.125	98.48
552.368	99.14
552.61	96.5
552.853	100.62
553.095	100.19
553.338	99.3
553.58	99.52
553.823	98.66
554.065	100.99
554.308	96.47
554.55	94.11
554.792	91.11
555.035	89.85
555.277	89.59
