Data from mesure_FLMT021711__22__44.txt Node

Date: Mon Nov 04 11:53:12 CET 2024
User: jordan.swietlicki
Spectrometer: FLMT02171
Trigger mode: 0
Integration Time (sec): 1.000000E-1
Scans to average: 15
Electric dark correction enabled: true
Nonlinearity correction enabled: false
Boxcar width: 15
XAxis mode: Wavelengths
Number of Pixels in Spectrum: 3648
>>>>>Begin Spectral Data<<<<<
194.7	-43.161
194.9	-41.406
195.2	-36.857
195.5	-35.785
195.7	-32.177
196	-31.156
196.2	-30.718
196.5	-32.848
196.8	-31.616
197	-30.79
197.3	-30.923
197.6	-28.236
197.8	-28.104
198.1	-27.098
198.4	-25.01
198.6	-23.637
198.9	-19.877
199.2	-16.008
199.4	-10.988
199.7	-4.61
200	-4.644
200.2	-6.828
200.5	-6.594
200.7	-6.854
201	-6.138
201.3	-6.051
201.5	-5.647
201.8	-6.089
202.1	-4.874
202.3	-4.663
202.6	-4.791
202.9	-5.527
203.1	-4.897
203.4	-6.496
203.7	-6.719
203.9	-7.726
204.2	-7.25
204.5	-6.028
204.7	-4.09
205	-3.698
205.2	-2.789
205.5	-1.257
205.8	-1.819
206	1.522
206.3	2.325
206.6	3.072
206.8	2.601
207.1	3.389
207.4	5.72
207.6	7.971
207.9	8.299
208.2	8.786
208.4	9.763
208.7	9.193
208.9	10.894
209.2	10.532
209.5	10.042
209.7	10.034
210	10.396
210.3	10.272
210.5	11.777
210.8	11.845
211.1	12.535
211.3	12.527
211.6	12.071
211.9	12.452
212.1	12.772
212.4	12.497
212.6	12.584
212.9	12.742
213.2	11.505
213.4	11.694
213.7	12.403
214	12.565
214.2	9.374
214.5	9.186
214.8	9.352
215	10.102
215.3	13.123
215.5	13.693
215.8	11.95
216.1	11.826
216.3	13.127
216.6	12.968
216.9	14.047
217.1	14.315
217.4	14.628
217.7	14.809
217.9	12.188
218.2	12.376
218.5	11.818
218.7	10.2
219	10.762
219.2	11.611
219.5	12.463
219.8	13.478
220	13.998
220.3	13.877
220.6	15.495
220.8	14.858
221.1	15.556
221.4	15.22
221.6	15.412
221.9	15.412
222.1	14.183
222.4	14.628
222.7	16.314
222.9	12.512
223.2	10.819
223.5	8.314
223.7	9.8
224	8.424
224.2	7.579
224.5	7.247
224.8	6.761
225	6.576
225.3	6.881
225.6	6.044
225.8	7.443
226.1	9.706
226.4	8.718
226.6	7.07
226.9	8.771
227.1	8.386
227.4	7.602
227.7	6.451
227.9	5.92
228.2	5.78
228.5	5.203
228.7	3.815
229	3.63
229.3	4.026
229.5	7.753
229.8	7.451
230	6.236
230.3	5.837
230.6	6.795
230.8	4.799
231.1	6.727
231.4	7.485
231.6	10.872
231.9	8.756
232.1	11.041
232.4	10.317
232.7	10.185
232.9	10.208
233.2	9.042
233.5	7.428
233.7	9.106
234	8.1
234.2	6.576
234.5	7.877
234.8	10.796
235	9.695
235.3	9.785
235.6	10.37
235.8	10.638
236.1	11.928
236.4	11.581
236.6	12.942
236.9	13.753
237.1	14.737
237.4	14.537
237.7	10.698
237.9	9.714
238.2	9.374
238.5	11.094
238.7	9.367
239	9.34
239.2	9.02
239.5	9.8
239.8	7.741
240	7.04
240.3	8.126
240.6	8.522
240.8	7.971
241.1	8.639
241.3	8.265
241.6	8.035
241.9	5.682
242.1	6.327
242.4	8.107
242.7	7.138
242.9	7.187
243.2	7.157
243.4	7.704
243.7	6.527
244	5.671
244.2	5.422
244.5	5.946
244.8	6.749
245	6.542
245.3	7.79
245.5	6.746
245.8	7.677
246.1	7.296
246.3	6.9
246.6	6.116
246.9	8.216
247.1	8.971
247.4	9.616
247.6	11.181
247.9	10.464
248.2	10.129
248.4	8.201
248.7	8.081
248.9	7.99
249.2	7.228
249.5	7.873
249.7	8.209
250	8.326
250.3	7.055
250.5	5.343
250.8	7.556
251	5.739
251.3	6.832
251.6	7.451
251.8	8.416
252.1	8.296
252.4	5.674
252.6	5.863
252.9	3.793
253.1	2.936
253.4	0.108
253.7	1.088
253.9	2.514
254.2	3.668
254.4	3.766
254.7	4.109
255	4.204
255.2	4.894
255.5	3.804
255.8	1.997
256	2.412
256.3	3.615
256.5	2.906
256.8	3.001
257.1	3.423
257.3	3.562
257.6	4.37
257.8	4.935
258.1	6.41
258.4	7.783
258.6	8.594
258.9	7.704
259.2	6.964
259.4	5.505
259.7	3.54
259.9	1.73
260.2	3.419
260.5	5.505
260.7	3.947
261	4.313
261.2	3.536
261.5	4.298
261.8	3.057
262	3.992
262.3	3.476
262.6	3.668
262.8	2.729
263.1	1.775
263.3	-0.386
263.6	1.047
263.9	0.293
264.1	-0.032
264.4	1.186
264.6	2.065
264.9	1.816
265.2	2.209
265.4	1.134
265.7	1.699
266	0.496
266.2	0.79
266.5	0.485
266.7	-0.318
267	-2.57
267.3	-1.661
267.5	-0.258
267.8	2.397
268	3.495
268.3	1.903
268.6	0.391
268.8	2.902
269.1	1.334
269.3	0.953
269.6	0.504
269.9	0.583
270.1	-1.985
270.4	-0.496
270.6	-0.382
270.9	-0.726
271.2	-1.306
271.4	-2.174
271.7	-4.026
272	-3.743
272.2	-2.691
272.5	-4.441
272.7	-3.328
273	-2.657
273.3	-1.755
273.5	0.587
273.8	-0.492
274	0.443
274.3	-1.356
274.6	-1.435
274.8	0.617
275.1	1.892
275.3	2.68
275.6	1.831
275.9	-0.266
276.1	0.217
276.4	0.681
276.6	2.107
276.9	0.315
277.2	2.85
277.4	3.317
277.7	6.225
277.9	6.787
278.2	7.243
278.5	7.492
278.7	8.107
279	7.839
279.2	7.726
279.5	8.571
279.8	9.759
280	10.581
280.3	9.001
280.5	8.428
280.8	7.059
281.1	5.852
281.3	5.991
281.6	4.475
281.9	6.297
282.1	6.448
282.4	6.5
282.6	7.56
282.9	6.606
283.2	5.799
283.4	4.931
283.7	4.603
283.9	4.781
284.2	5.373
284.5	4.249
284.7	3.125
285	2.499
285.2	0.172
285.5	1.454
285.8	-0.537
286	2.951
286.3	4.23
286.5	3.012
286.8	3.408
287.1	5.275
287.3	5.195
287.6	4.799
287.8	4.886
288.1	2.525
288.4	2.103
288.6	5.033
288.9	5.818
289.1	6.712
289.4	4.532
289.7	5.079
289.9	2.608
290.2	3.94
290.4	5.844
290.7	3.676
290.9	1.22
291.2	2.495
291.5	4.615
291.7	5.927
292	6.753
292.2	5.505
292.5	7.436
292.8	9.095
293	8.748
293.3	10.212
293.5	11.841
293.8	11.792
294.1	9.993
294.3	8.394
294.6	7.413
294.8	7.025
295.1	6.44
295.4	6.881
295.6	7.726
295.9	8.054
296.1	7.949
296.4	8.703
296.7	5.188
296.9	5.094
297.2	3.219
297.4	4.234
297.7	3.076
298	4.626
298.2	3.05
298.5	2.721
298.7	4.535
299	7.915
299.3	7.681
299.5	5.618
299.8	5.305
300	5.735
300.3	6.086
300.5	5.663
300.8	3.932
301.1	5.867
301.3	6.24
301.6	4.121
301.8	1.552
302.1	1.047
302.4	1.322
302.6	2.48
302.9	3.042
303.1	1.537
303.4	2.118
303.7	2.216
303.9	0.9
304.2	1.541
304.4	1.202
304.7	3.585
304.9	1.929
305.2	4.622
305.5	4.701
305.7	5.267
306	5.493
306.2	7.421
306.5	7.673
306.8	6.059
307	3.302
307.3	3.344
307.5	3.419
307.8	1.756
308.1	-0.533
308.3	0.236
308.6	-0.303
308.8	1.07
309.1	1.149
309.3	1.824
309.6	1.296
309.9	4.396
310.1	2.978
310.4	4.226
310.6	4.336
310.9	2.925
311.2	4.294
311.4	4.207
311.7	4.652
311.9	4.569
312.2	6.24
312.5	6.15
312.7	5.327
313	5.222
313.2	5.358
313.5	5.011
313.7	3.238
314	2.197
314.3	0.462
314.5	1.401
314.8	2.657
315	4.588
315.3	3.283
315.6	2.435
315.8	2.175
316.1	3.174
316.3	2.325
316.6	3.042
316.8	1.654
317.1	0.485
317.4	-1.725
317.6	-1.97
317.9	-3.064
318.1	-2.838
318.4	-3.652
318.6	-3.83
318.9	-3.882
319.2	-4.674
319.4	-5.331
319.7	-6.055
319.9	-5.783
320.2	-6.768
320.5	-5.813
320.7	-6.183
321	-6.134
321.2	-7.499
321.5	-6.734
321.7	-4.942
322	-4.007
322.3	-4.448
322.5	-5.131
322.8	-5.519
323	-6.507
323.3	-4.98
323.5	-3.954
323.8	-2.242
324.1	-1.974
324.3	-1.141
324.6	-2.227
324.8	-0.726
325.1	-1.559
325.4	-0.631
325.6	0.462
325.9	0.413
326.1	2.167
326.4	1.02
326.6	-0.292
326.9	1.002
327.2	1.36
327.4	2.333
327.7	3.042
327.9	3.917
328.2	4.437
328.4	3.974
328.7	6.218
329	7.123
329.2	7.783
329.5	6.614
329.7	6.636
330	6.768
330.2	7.832
330.5	8.809
330.8	7.647
331	8.726
331.3	7.67
331.5	7.873
331.8	6.255
332	5.418
332.3	3.212
332.6	3.604
332.8	2.982
333.1	4.973
333.3	5.776
333.6	5.75
333.8	6.331
334.1	5.354
334.4	5.539
334.6	5.659
334.9	4.241
335.1	4.403
335.4	3.061
335.6	3.83
335.9	2.035
336.2	0.425
336.4	0.353
336.7	-1.933
336.9	-0.828
337.2	-1.899
337.4	-1.578
337.7	-2.151
338	-5.18
338.2	-4.821
338.5	-7.616
338.7	-6.292
339	-5.904
339.2	-3.739
339.5	-4.901
339.8	-3.852
340	-3.241
340.3	-1.084
340.5	-0.364
340.8	2.005
341	0.994
341.3	-0.243
341.6	0.025
341.8	-0.1
342.1	-1.982
342.3	-1.763
342.6	-0.382
342.8	0.262
343.1	-0.179
343.4	-0.341
343.6	-2.298
343.9	-0.239
344.1	0.828
344.4	0.195
344.6	0.112
344.9	-0.413
345.1	-0.032
345.4	-0.646
345.7	0.13
345.9	2.454
346.2	1.017
346.4	1.024
346.7	-0.296
346.9	-0.548
347.2	-2.921
347.5	-1.906
347.7	-1.752
348	-2.955
348.2	-3.275
348.5	-3.411
348.7	-1.137
349	-0.537
349.2	0.911
349.5	0.741
349.8	0.41
350	1.318
350.3	1.862
350.5	1.643
350.8	2.258
351	2.231
351.3	3.321
351.6	2.518
351.8	1.779
352.1	1.711
352.3	2.646
352.6	2.812
352.8	1.714
353.1	1.756
353.3	2.171
353.6	0.76
353.9	0.112
354.1	-0.005
354.4	2.031
354.6	3.97
354.9	2.876
355.1	4.113
355.4	4.087
355.6	4.106
355.9	4.856
356.2	4.773
356.4	5.278
356.7	0.41
356.9	0.64
357.2	-0.281
357.4	-0.662
357.7	-0.613
358	2.288
358.2	2.19
358.5	1.56
358.7	-0.428
359	0.425
359.2	0.64
359.5	2.265
359.7	3.619
360	3.114
360.3	4.637
360.5	5.146
360.8	5.388
361	7.489
361.3	7.168
361.5	9.11
361.8	8.654
362	9.714
362.3	8.379
362.6	8.45
362.8	10.781
363.1	11.807
363.3	11.882
363.6	12.572
363.8	13.851
364.1	13.029
364.3	13.089
364.6	14.13
364.8	15.262
365.1	15.035
365.4	17.528
365.6	17.909
365.9	15.756
366.1	16.246
366.4	16.532
366.6	18.588
366.9	19.961
367.1	19.821
367.4	21.888
367.7	22.288
367.9	24.215
368.2	22.97
368.4	21.021
368.7	22.001
368.9	22.141
369.2	21.005
369.4	21.371
369.7	24.064
370	24.038
370.2	24.087
370.5	23.385
370.7	22.812
371	22.597
371.2	22.835
371.5	24.075
371.7	24.238
372	24.551
372.2	24.717
372.5	25.916
372.8	24.675
373	23.872
373.3	20.198
373.5	22.039
373.8	21.564
374	21.65
374.3	23.117
374.5	23.898
374.8	24.773
375	24.272
375.3	22.963
375.6	21.982
375.8	22.85
376.1	23.702
376.3	26.851
376.6	26.753
376.8	24.388
377.1	27.462
377.3	25.999
377.6	24.332
377.8	24.879
378.1	26.391
378.4	27.01
378.6	26.146
378.9	24.336
379.1	25.471
379.4	24.404
379.6	23.449
379.9	22.752
380.1	22.054
380.4	21.53
380.6	22.503
380.9	23.491
381.2	25.58
381.4	25.26
381.7	27.044
381.9	28.126
382.2	27.885
382.4	27.338
382.7	25.233
382.9	26.169
383.2	28.035
383.4	28.714
383.7	29.593
383.9	28.477
384.2	27.519
384.5	29.423
384.7	30.415
385	30.076
385.2	31.256
385.5	32.041
385.7	32.184
386	32.855
386.2	33.47
386.5	33.406
386.7	35.68
387	35.526
387.2	36.978
387.5	39.652
387.8	42.258
388	44.166
388.3	44.954
388.5	45.92
388.8	47.986
389	48.929
389.3	48.413
389.5	47.828
389.8	49.14
390	48.59
390.3	48.873
390.5	49.506
390.8	52.003
391.1	51.147
391.3	51.418
391.6	50.313
391.8	52.135
392.1	52.886
392.3	54.345
392.6	56.072
392.8	57.189
393.1	61.292
393.3	64.098
393.6	65.135
393.8	65.814
394.1	67.952
394.4	70.902
394.6	72.497
394.9	74.394
395.1	75.152
395.4	74.632
395.6	76.521
395.9	76.702
396.1	77.6
396.4	78.912
396.6	79.863
396.9	80.549
397.1	82.16
397.4	85.486
397.6	85.392
397.9	87.956
398.2	90.721
398.4	94.526
398.7	95.835
398.9	97.079
399.2	99.414
399.4	101.888
399.7	102.767
399.9	103.849
400.2	103.679
400.4	105.135
400.7	107.168
400.9	106.395
401.2	107.187
401.4	109.099
401.7	109.763
401.9	109.533
402.2	107.971
402.5	108.514
402.7	106.323
403	106.557
403.2	108.567
403.5	108.729
403.7	110.083
404	111.977
404.2	111.897
404.5	114.338
404.7	116.412
405	118.392
405.2	118.614
405.5	120.447
405.7	122.065
406	123.306
406.2	123.947
406.5	125.727
406.7	126.029
407	126.029
407.3	126.244
407.5	127.651
407.8	128.409
408	128.394
408.3	129.465
408.5	130.423
408.8	129.227
409	130.66
409.3	130.574
409.5	133.195
409.8	133.444
410	136.431
410.3	137.268
410.5	142.812
410.8	142.91
411	143.83
411.3	144.705
411.5	146.229
411.8	146.154
412	146.64
412.3	147.745
412.6	149.465
412.8	148.533
413.1	147.896
413.3	148.103
413.6	147.609
413.8	146.851
414.1	145.505
414.3	144.8
414.6	146.346
414.8	145.429
415.1	145.316
415.3	144.984
415.6	147.274
415.8	147.783
416.1	147.655
416.3	146.636
416.6	149.835
416.8	149.186
417.1	151.871
417.3	148.922
417.6	150.562
417.8	150.785
418.1	151.162
418.4	150.355
418.6	152.49
418.9	152.373
419.1	153.074
419.4	152.674
419.6	153.504
419.9	154.786
420.1	152.58
420.4	151.728
420.6	152.365
420.9	151.452
421.1	151.06
421.4	152.203
421.6	152.203
421.9	152.546
422.1	151.2
422.4	150.762
422.6	152.226
422.9	151.192
423.1	151.46
423.4	151.645
423.6	152.739
423.9	154.258
424.1	155.552
424.4	153.218
424.6	151.769
424.9	150.215
425.1	150.74
425.4	149.307
425.6	150.283
425.9	148.971
426.2	148.507
426.4	147.674
426.7	147.545
426.9	145.69
427.2	143.419
427.4	141.311
427.7	140.278
427.9	138.973
428.2	138.584
428.4	139.833
428.7	140.862
428.9	143.008
429.2	144.343
429.4	145.301
429.7	145.407
429.9	143.683
430.2	143.566
430.4	144.249
430.7	146.821
430.9	147.017
431.2	145.852
431.4	145.441
431.7	144.901
431.9	143.747
432.2	145.95
432.4	147.523
432.7	147.308
432.9	150.042
433.2	153.15
433.4	152.388
433.7	154.945
433.9	154.971
434.2	154.734
434.4	154.583
434.7	156.797
434.9	159.704
435.2	160.033
435.4	160.398
435.7	162.22
435.9	162.616
436.2	163.223
436.4	164.034
436.7	162.774
436.9	160.568
437.2	160.3
437.4	162.212
437.7	166.063
437.9	167.624
438.2	167.093
438.4	167.79
438.7	168.88
438.9	169.616
439.2	169.107
439.4	167.617
439.7	169.363
439.9	169.876
440.2	169.431
440.5	171.626
440.7	171.245
441	170.762
441.2	172.558
441.5	171.788
441.7	171.713
442	172.98
442.2	173.21
442.5	172.863
442.7	174.16
443	176.457
443.2	177.966
443.5	177.562
443.7	178.573
444	177.494
444.2	178.728
444.5	180.417
444.7	183.035
445	183.985
445.2	183.54
445.5	183.136
445.7	183.834
446	184.517
446.2	184.913
446.5	186.218
446.7	187.839
447	189.752
447.2	192.882
447.5	195.183
447.7	194.523
448	195.149
448.2	195.797
448.5	196.981
448.7	198.264
449	198.041
449.2	199.637
449.5	201.409
449.7	201.198
450	201.975
450.2	204.193
450.5	204
450.7	206.022
451	205.995
451.2	208.752
451.5	209.133
451.7	212.135
452	214.741
452.2	215.183
452.5	215.454
452.7	216.925
452.9	218.713
453.2	219.52
453.4	222.416
453.7	224.92
453.9	225.505
454.2	225.973
454.4	225.961
454.7	227.911
454.9	227.919
455.2	227.1
455.4	229.065
455.7	232.384
455.9	232.358
456.2	233.685
456.4	234.722
456.7	235.688
456.9	236.076
457.2	236.601
457.4	240.742
457.7	245.019
457.9	246.256
458.2	248.039
458.4	248.782
458.7	251.106
458.9	251.505
459.2	252.923
459.4	255.673
459.7	257.295
459.9	257.826
460.2	258.392
460.4	258.95
460.7	262.179
460.9	264.947
461.2	263.687
461.4	264.449
461.7	267.327
461.9	268.899
462.2	270.072
462.4	270.612
462.7	273.599
462.9	274.489
463.2	275.533
463.4	274.896
463.7	277.841
463.9	279.12
464.2	280.184
464.4	282.066
464.7	284.762
464.9	285.822
465.2	286.139
465.4	286.09
465.7	288.552
465.9	291.336
466.2	293.112
466.4	294.983
466.6	296.891
466.9	296.778
467.1	295.13
467.4	295.488
467.6	298.494
467.9	300.267
468.1	301.824
468.4	301.315
468.6	301.722
468.9	303.702
469.1	305.652
469.4	306.324
469.6	307.806
469.9	309.827
470.1	313.176
470.4	312.207
470.6	315.718
470.9	319.754
471.1	323.254
471.4	323.684
471.6	325.298
471.9	328.19
472.1	330.861
472.4	332.184
472.6	336.095
472.9	337.08
473.1	340.048
473.4	341.56
473.6	342.714
473.9	343.582
474.1	346.659
474.3	349.103
474.6	355.115
474.8	357.423
475.1	360.108
475.3	361.696
475.6	364.449
475.8	368.153
476.1	371.83
476.3	374.07
476.6	377.77
476.8	380.218
477.1	385.271
477.3	389.22
477.6	393.776
477.8	396.276
478.1	401.089
478.3	404.276
478.6	408.153
478.8	410.604
479.1	413.708
479.3	416.246
479.6	419.742
479.8	422.669
480.1	427.112
480.3	430.634
480.5	435.168
480.8	435.488
481	439.531
481.3	442.058
481.5	446.177
481.8	446.312
482	450.382
482.3	450.171
482.5	451.611
482.8	452.675
483	454.693
483.3	457.027
483.5	461.029
483.8	462.413
484	464.634
484.3	465.396
484.5	469.107
484.8	471.042
485	472.177
485.2	472.656
485.5	476.145
485.7	478.223
486	480.199
486.2	481.417
486.5	484.932
486.7	487.708
487	492.237
487.2	493.942
487.5	497.265
487.7	500.274
488	500.561
488.2	501.342
488.5	504.551
488.7	504.713
489	506.829
489.2	508.375
489.5	512.418
489.7	515.055
489.9	517.359
490.2	521.1
490.4	525.17
490.7	529.118
490.9	532.392
491.2	533.071
491.4	536.989
491.7	541.862
491.9	545.532
492.2	546.746
492.4	548.006
492.7	551.634
492.9	556.02
493.2	557.88
493.4	558.747
493.6	560.127
493.9	561.768
494.1	561.681
494.4	563.869
494.6	564.234
494.9	564.148
495.1	563.454
495.4	564.272
495.6	566.716
495.9	569.545
496.1	572.811
496.4	575.609
496.6	578.253
496.9	582.733
497.1	583.51
497.3	582.865
497.6	585.042
497.8	587.742
498.1	586.411
498.3	586.61
498.6	585.174
498.8	585.392
499.1	585.932
499.3	586.135
499.6	587.708
499.8	588.032
500.1	585.95
500.3	585.686
500.6	584.185
500.8	582.715
501	584.959
501.3	583.993
501.5	582.534
501.8	584.283
502	585.668
502.3	584.604
502.5	584.415
502.8	586.294
503	588.002
503.3	587.082
503.5	585.807
503.8	585.362
504	584.174
504.2	585.098
504.5	582.36
504.7	583.412
505	583.627
505.2	585.207
505.5	585.615
505.7	587.655
506	587.738
506.2	590.046
506.5	589.703
506.7	587.938
506.9	586.72
507.2	586.271
507.4	584.502
507.7	587.146
507.9	587.221
508.2	589.428
508.4	589.16
508.7	588.775
508.9	589.175
509.2	590.363
509.4	590.216
509.7	588.221
509.9	589.262
510.1	589.707
510.4	587.836
510.6	583.729
510.9	584.525
511.1	584.864
511.4	584.491
511.6	584.574
511.9	581.285
512.1	579.98
512.4	579.403
512.6	577.789
512.8	573.689
513.1	569.247
513.3	566.143
513.6	562.756
513.8	560.056
514.1	557.348
514.3	553.799
514.6	552.041
514.8	547.7
515.1	547.063
515.3	543.016
515.5	540.817
515.8	537.789
516	535.734
516.3	532.275
516.5	529.19
516.8	525.962
517	522.141
517.3	520.346
517.5	518.343
517.7	516.145
518	513.972
518.2	512.098
518.5	509.326
518.7	506.938
519	503.518
519.2	500.44
519.5	498.302
519.7	495.447
520	492.279
520.2	491.151
520.4	491.845
520.7	493.727
520.9	493.425
521.2	493.403
521.4	492.166
521.7	493.373
521.9	493.271
522.2	489.314
522.4	490.634
522.6	488.779
522.9	488.059
523.1	485.796
523.4	483.284
523.6	480.35
523.9	479.927
524.1	478.747
524.4	476.333
524.6	473.456
524.8	470.084
525.1	466.886
525.3	465.973
525.6	464.977
525.8	465.841
526.1	464.374
526.3	463.344
526.6	461.451
526.8	459.38
527	460.542
527.3	459.844
527.5	458.287
527.8	456.869
528	452.792
528.3	451.487
528.5	449.594
528.8	446.433
529	444.544
529.2	443.623
529.5	441.643
529.7	443.725
530	441.308
530.2	441.432
530.5	438.475
530.7	437.25
531	435.439
531.2	435.903
531.4	433.531
531.7	434.289
531.9	433.584
532.2	434.451
532.4	434.553
532.7	434.655
532.9	432.316
533.2	430.122
533.4	427.429
533.6	425.554
533.9	422.356
534.1	421.093
534.4	420.825
534.6	420.485
534.9	418.702
535.1	417.514
535.3	416.046
535.6	416.574
535.8	412.645
536.1	412.494
536.3	413.297
536.6	413.572
536.8	411.385
537.1	410.763
537.3	408.356
537.5	407.297
537.8	405.079
538	406.014
538.3	403.804
538.5	403.001
538.8	401.934
539	401.047
539.2	399.094
539.5	398.66
539.7	398.517
540	397.559
540.2	398.17
540.5	397.883
540.7	398.06
540.9	397.151
541.2	397.434
541.4	401.059
541.7	404.321
541.9	404.483
542.2	400.719
542.4	400.644
542.7	400.595
542.9	400.9
543.1	401.183
543.4	404.072
543.6	403.699
543.9	403.265
544.1	402.017
544.4	401.379
544.6	401.549
544.8	401.986
545.1	401.877
545.3	402.345
545.6	402.628
545.8	404.883
546.1	405.158
546.3	405.456
546.5	406.32
546.8	408.1
547	409.277
547.3	408.907
547.5	409.062
547.8	407.919
548	407.919
548.2	409.152
548.5	408.93
548.7	408.896
549	406.082
549.2	405.758
549.5	405.09
549.7	405.43
549.9	405.038
550.2	404.008
550.4	403.917
550.7	403.785
550.9	399.98
551.2	400.934
551.4	400.9
551.6	401.624
551.9	402.503
552.1	402.281
552.4	402.405
552.6	400.666
552.9	401.04
553.1	399.392
553.3	398.683
553.6	398.147
553.8	396.835
554.1	398.121
554.3	395.13
554.5	391.702
554.8	388.866
555	386.98
555.3	384.883
555.5	384.332
555.8	381.059
556	380.187
556.2	377.155
556.5	376.616
556.7	372.475
557	371.536
557.2	370.231
557.5	370.367
557.7	371.721
557.9	368.59
558.2	366.795
558.4	368.273
558.7	363.744
558.9	363.099
559.2	360.961
559.4	358.815
559.6	358.343
559.9	357.683
560.1	355.688
560.4	355.224
560.6	354.542
560.8	353.486
561.1	352.369
561.3	352.705
561.6	349.771
561.8	349.382
562.1	348.767
562.3	349.035
562.5	349.476
562.8	351.596
563	349.831
563.3	351.053
563.5	350.186
563.7	349.963
564	347.576
564.2	347.866
564.5	346.693
564.7	347.613
565	347.463
565.2	344.815
565.4	345.871
565.7	347.621
565.9	345.622
566.2	347.082
566.4	345.275
566.6	347.116
566.9	347.96
567.1	348.53
567.4	347.15
567.6	349.356
567.9	347.998
568.1	349.065
568.3	348.141
568.6	349.201
568.8	349.231
569.1	348.571
569.3	348.387
569.5	348.798
569.8	350.623
570	350.612
570.3	350.208
570.5	351.343
570.7	351.14
571	352.912
571.2	354.187
571.5	355.903
571.7	355.364
572	356.797
572.2	355.677
572.4	356.574
572.7	358.09
572.9	359.55
573.2	357.864
573.4	357.551
573.6	358.124
573.9	359.757
574.1	358.004
574.4	355.945
574.6	355.997
574.8	356.341
575.1	356.518
575.3	356.925
575.6	356.782
575.8	357.517
576	356.91
576.3	356.31
576.5	360.108
576.8	362.563
577	364.823
577.3	366.361
577.5	367.048
577.7	368.168
578	369.729
578.2	370.657
578.5	370.148
578.7	372.203
578.9	374.764
579.2	377.027
