Data from mesure_FLMT021711__27__49.txt Node

Date: Mon Nov 04 12:08:51 CET 2024
User: jordan.swietlicki
Spectrometer: FLMT02171
Trigger mode: 0
Integration Time (sec): 5.000000E-1
Scans to average: 30
Electric dark correction enabled: true
Nonlinearity correction enabled: false
Boxcar width: 30
XAxis mode: Wavelengths
Number of Pixels in Spectrum: 3648
>>>>>Begin Spectral Data<<<<<
194.7	-82.509
194.9	-85.97
195.2	-86.057
195.5	-84.404
195.7	-72.892
196	-72.094
196.2	-67.548
196.5	-63.641
196.8	-64.516
197	-58.248
197.3	-55.451
197.6	-47.621
197.8	-43.973
198.1	-36.531
198.4	-37.415
198.6	-36.227
198.9	-36.999
199.2	-33.11
199.4	-30.548
199.7	-31.088
200	-28.125
200.2	-25.723
200.5	-21.309
200.7	-20.869
201	-16.649
201.3	-12.575
201.5	-9.238
201.8	-4.442
202.1	5.491
202.3	9.531
202.6	16.81
202.9	35.579
203.1	50.936
203.4	69.181
203.7	92.229
203.9	99.145
204.2	94.85
204.5	98.427
204.7	103.233
205	106.969
205.2	110.757
205.5	109.835
205.8	114.775
206	117.332
206.3	124.871
206.6	130.051
206.8	130.7
207.1	131.573
207.4	130.43
207.6	130.58
207.9	126.531
208.2	127.911
208.4	129.688
208.7	138.388
208.9	138.259
209.2	134.486
209.5	140.238
209.7	136.515
210	143.394
210.3	139.345
210.5	139.434
210.8	141.395
211.1	147.337
211.3	155.5
211.6	161.754
211.9	157.545
212.1	163.415
212.4	166.345
212.6	168.61
212.9	173.39
213.2	174.847
213.4	175.387
213.7	171.805
214	167.8
214.2	165.488
214.5	169.495
214.8	168.738
215	171.004
215.3	172.875
215.5	174.767
215.8	177.862
216.1	176.341
216.3	179.657
216.6	179.542
216.9	178.992
217.1	176.869
217.4	171.87
217.7	172.586
217.9	173.597
218.2	166.558
218.5	162.779
218.7	163.144
219	158.344
219.2	158.217
219.5	156.072
219.8	156.495
220	150.198
220.3	151.445
220.6	151.172
220.8	151.798
221.1	151.437
221.4	151.72
221.6	152.517
221.9	150.597
222.1	153.475
222.4	147.079
222.7	142.989
222.9	144.518
223.2	147.142
223.5	145.652
223.7	147.551
224	146.151
224.2	145.592
224.5	143.518
224.8	141.354
225	139.541
225.3	144.953
225.6	149.407
225.8	147.616
226.1	145.336
226.4	144.892
226.6	142.819
226.9	141.491
227.1	141.583
227.4	134.549
227.7	140.586
227.9	143.998
228.2	142.139
228.5	139.036
228.7	138.229
229	138.451
229.3	133.282
229.5	132.811
229.8	135.307
230	139.179
230.3	137.167
230.6	137.645
230.8	145.556
231.1	145.616
231.4	143.063
231.6	142.38
231.9	142.564
232.1	147.114
232.4	142.458
232.7	144.993
232.9	148.177
233.2	151.112
233.5	154.928
233.7	147.999
234	142.561
234.2	139.446
234.5	143.429
234.8	136.78
235	142.691
235.3	144.425
235.6	148.367
235.8	143.455
236.1	144.759
236.4	150.785
236.6	147.438
236.9	146.402
237.1	147.283
237.4	144.329
237.7	141.929
237.9	136.305
238.2	135.003
238.5	141.035
238.7	141.777
239	146.627
239.2	144.37
239.5	145.687
239.8	145.911
240	144.69
240.3	146.96
240.6	147.158
240.8	152.465
241.1	157.98
241.3	161.752
241.6	153.398
241.9	152.271
242.1	149.097
242.4	148.187
242.7	150.382
242.9	151.889
243.2	153.855
243.4	158.38
243.7	154.672
244	152.126
244.2	151.039
244.5	149.68
244.8	149.65
245	147.965
245.3	152.322
245.5	152.575
245.8	150.602
246.1	145.008
246.3	146.954
246.6	144.786
246.9	144.275
247.1	144.667
247.4	146.732
247.6	150.851
247.9	151.143
248.2	144.867
248.4	142.078
248.7	137.015
248.9	136.588
249.2	132.939
249.5	130.556
249.7	136.542
250	140.799
250.3	143.953
250.5	139.185
250.8	141.473
251	144.172
251.3	150.254
251.6	148.088
251.8	149.562
252.1	152.126
252.4	146.323
252.6	145.08
252.9	144.757
253.1	144.793
253.4	146.332
253.7	151.195
253.9	155.752
254.2	154.764
254.4	154.639
254.7	157.193
255	154.387
255.2	154.621
255.5	151.825
255.8	149.115
256	148.204
256.3	148.492
256.5	149.795
256.8	143.125
257.1	139.55
257.3	132.421
257.6	133.029
257.8	133.148
258.1	139.698
258.4	143.302
258.6	138.202
258.9	134.197
259.2	131.754
259.4	130.617
259.7	125.101
259.9	125.71
260.2	124.978
260.5	132.491
260.7	131.75
261	130.462
261.2	130.986
261.5	131.134
261.8	135.054
262	138.046
262.3	140.337
262.6	141.843
262.8	132.094
263.1	128.956
263.3	127.283
263.6	125.828
263.9	127.989
264.1	130.847
264.4	133.752
264.6	130.823
264.9	134.32
265.2	131.834
265.4	129.677
265.7	127.389
266	124.195
266.2	121.062
266.5	125.754
266.7	124.303
267	118.345
267.3	111.879
267.5	107.398
267.8	101.443
268	98.568
268.3	101.505
268.6	103.31
268.8	106.677
269.1	107.132
269.3	111.314
269.6	114.264
269.9	111.856
270.1	112.247
270.4	106.9
270.6	105.835
270.9	108.634
271.2	111.671
271.4	116.775
271.7	121.248
272	124.576
272.2	122.244
272.5	122.229
272.7	123.109
273	124.988
273.3	129.51
273.5	127.492
273.8	135.467
274	130.834
274.3	130.596
274.6	138.674
274.8	139.511
275.1	136.806
275.3	134.019
275.6	133.295
275.9	133.425
276.1	135.946
276.4	127.368
276.6	125.934
276.9	129.657
277.2	126.973
277.4	133.49
277.7	130.971
277.9	137.183
278.2	134.819
278.5	129.973
278.7	138.184
279	143.686
279.2	142.251
279.5	138.004
279.8	135.304
280	135.086
280.3	138.929
280.5	139.58
280.8	131.689
281.1	133.55
281.3	135.81
281.6	139.076
281.9	140.949
282.1	155.159
282.4	156.664
282.6	156.279
282.9	158.957
283.2	162.392
283.4	167.023
283.7	168.138
283.9	171.343
284.2	164.216
284.5	162.967
284.7	166.521
285	166.532
285.2	162.788
285.5	156.738
285.8	161.434
286	159.454
286.3	167.133
286.5	168.495
286.8	161.306
287.1	156.235
287.3	153.993
287.6	159.732
287.8	162.829
288.1	165.478
288.4	164.415
288.6	167.487
288.9	167.5
289.1	161.453
289.4	164.851
289.7	164.783
289.9	165.459
290.2	169.94
290.4	162.968
290.7	164.482
290.9	167.838
291.2	171.775
291.5	171.66
291.7	170.216
292	170.268
292.2	170.156
292.5	171.958
292.8	166.957
293	169.202
293.3	158.422
293.5	159.776
293.8	156.842
294.1	158.664
294.3	164.023
294.6	164.44
294.8	166.271
295.1	169.603
295.4	171.406
295.6	169.985
295.9	174.09
296.1	174.494
296.4	177.945
296.7	183.367
296.9	182.62
297.2	187.652
297.4	189.502
297.7	186.851
298	170.311
298.2	166.521
298.5	167.497
298.7	166.69
299	166.802
299.3	164.566
299.5	170.662
299.8	171.151
300	171.399
300.3	170.983
300.5	163.833
300.8	164.771
301.1	162.731
301.3	168.544
301.6	168.339
301.8	168.85
302.1	168.042
302.4	170.772
302.6	175.362
302.9	179.203
303.1	174.21
303.4	169.53
303.7	168.788
303.9	163.899
304.2	162.98
304.4	163.343
304.7	160.74
304.9	164.088
305.2	167.475
305.5	166.357
305.7	163.534
306	162.046
306.2	164.212
306.5	166.052
306.8	167.84
307	163.961
307.3	164.905
307.5	167.6
307.8	168.981
308.1	170.902
308.3	171.959
308.6	174.015
308.8	174.91
309.1	177.224
309.3	178.923
309.6	179.776
309.9	175.874
310.1	174.882
310.4	172.101
310.6	172.703
310.9	175.501
311.2	176.411
311.4	176.211
311.7	170.487
311.9	165.832
312.2	165.891
312.5	164.529
312.7	168.92
313	164.723
313.2	162.11
313.5	163.934
313.7	167.124
314	168.058
314.3	167.7
314.5	171.11
314.8	170.704
315	173.302
315.3	169.866
315.6	168.8
315.8	172.929
316.1	175.934
316.3	178.966
316.6	180.427
316.8	186.487
317.1	182.696
317.4	181.077
317.6	190.134
317.9	190.1
318.1	193.581
318.4	192.899
318.6	200.246
318.9	206.66
319.2	208.441
319.4	214.767
319.7	224.54
319.9	233.452
320.2	237.583
320.5	247.074
320.7	251.795
321	255.797
321.2	254.761
321.5	267.099
321.7	274.907
322	283.977
322.3	295.175
322.5	303.157
322.8	315.513
323	327.685
323.3	337.661
323.5	347.558
323.8	363.303
324.1	378.285
324.3	394.751
324.6	406.796
324.8	435.009
325.1	448.03
325.4	464.9
325.6	485.973
325.9	506.328
326.1	528.903
326.4	548.818
326.6	570.697
326.9	591.432
327.2	620.822
327.4	647.17
327.7	677.091
327.9	701.003
328.2	728.342
328.4	750.792
328.7	779.234
329	805.081
329.2	834.363
329.5	870.571
329.7	902.567
330	937.287
330.2	968.927
330.5	1004.137
330.8	1040.39
331	1078.875
331.3	1119.573
331.5	1161.014
331.8	1209.626
332	1253.604
332.3	1297.446
332.6	1348.351
332.8	1402.999
333.1	1460.702
333.3	1508.154
333.6	1563.389
333.8	1613.511
334.1	1667.825
334.4	1723.36
334.6	1785.218
334.9	1849.52
335.1	1914.232
335.4	1981.637
335.6	2044.458
335.9	2105.003
336.2	2167.344
336.4	2227.214
336.7	2284.928
336.9	2352.945
337.2	2413.116
337.4	2475.317
337.7	2544.66
338	2610.241
338.2	2676.676
338.5	2746.748
338.7	2821.209
339	2895.605
339.2	2970.221
339.5	3044.852
339.8	3114.359
340	3187.567
340.3	3264.246
340.5	3328.533
340.8	3406.873
341	3481.701
341.3	3557.56
341.6	3633.827
341.8	3708.916
342.1	3788.442
342.3	3870.192
342.6	3958.897
342.8	4047.681
343.1	4146.895
343.4	4239.657
343.6	4336.741
343.9	4430.658
344.1	4523.598
344.4	4616.676
344.6	4711.425
344.9	4814.663
345.1	4902.276
345.4	4997.246
345.7	5096.388
345.9	5202.501
346.2	5310.172
346.4	5421.42
346.7	5539.63
346.9	5651.795
347.2	5766.219
347.5	5875.669
347.7	5982.469
348	6089.213
348.2	6188.248
348.5	6282.214
348.7	6372.005
349	6457.344
349.2	6533.965
349.5	6612.461
349.8	6687.317
350	6755.134
350.3	6817.573
350.5	6876.117
350.8	6929.545
351	6978.578
351.3	7044.446
351.6	7123.845
351.8	7213.72
352.1	7317.32
352.3	7429.012
352.6	7533.44
352.8	7632.998
353.1	7731.804
353.3	7820.594
353.6	7906.519
353.9	7989.79
354.1	8079.28
354.4	8158.01
354.6	8250.248
354.9	8340.725
355.1	8438.573
355.4	8542.86
355.6	8643.65
355.9	8752.648
356.2	8859.125
356.4	8969.855
356.7	9072.938
356.9	9179.246
357.2	9292.191
357.4	9398.531
357.7	9512.827
358	9633.744
358.2	9764.434
358.5	9891.358
358.7	10023.166
359	10158.462
359.2	10290.969
359.5	10420.995
359.7	10556.224
360	10688.139
360.3	10806.238
360.5	10916.836
360.8	11035.875
361	11152.93
361.3	11267.175
361.5	11383.901
361.8	11500.39
362	11621.145
362.3	11733.48
362.6	11845.798
362.8	11953.582
363.1	12057.933
363.3	12167.133
363.6	12285.635
363.8	12395.661
364.1	12510.268
364.3	12618.913
364.6	12727.947
364.8	12842.992
365.1	12959.753
365.4	13061.171
365.6	13160.699
365.9	13265.367
366.1	13358.887
366.4	13451.08
366.6	13544.457
366.9	13631.299
367.1	13714.892
367.4	13782.082
367.7	13849.663
367.9	13921.156
368.2	13999.272
368.4	14089.158
368.7	14177.145
368.9	14267.228
369.2	14362.637
369.4	14477.582
369.7	14596.661
370	14732.478
370.2	14862.632
370.5	15000.842
370.7	15133.484
371	15265.211
371.2	15379.633
371.5	15469.045
371.7	15546.293
372	15612.542
372.2	15688.433
372.5	15756.814
372.8	15825.027
373	15901.319
373.3	15973.573
373.5	16026.499
373.8	16058.52
374	16082.908
374.3	16081.409
374.5	16056.482
374.8	16021.401
375	15975.212
375.3	15920.482
375.6	15855.582
375.8	15796.209
376.1	15730.838
376.3	15683.099
376.6	15648.928
376.8	15624.06
377.1	15599.361
377.3	15594.74
377.6	15584.196
377.8	15573.663
378.1	15562.364
378.4	15552.149
378.6	15544.148
378.9	15538.571
379.1	15522.687
379.4	15524.4
379.6	15528.649
379.9	15538.38
380.1	15546.367
380.4	15562.058
380.6	15567.223
380.9	15598.05
381.2	15640.845
381.4	15683.311
381.7	15747.213
381.9	15833.781
382.2	15935.467
382.4	16028.232
382.7	16118.135
382.9	16224.563
383.2	16329.448
383.4	16423.321
383.7	16526.332
383.9	16618.617
384.2	16707.202
384.5	16791.549
384.7	16845.438
385	16864.177
385.2	16836.836
385.5	16763.446
385.7	16660.358
386	16546.957
386.2	16427.356
386.5	16322.804
386.7	16262.559
387	16250.263
387.2	16271.069
387.5	16315.668
387.8	16379.83
388	16445.142
388.3	16501.37
388.5	16531.842
388.8	16521.285
389	16497.14
389.3	16465.274
389.5	16434.929
389.8	16431.211
390	16473.258
390.3	16566.056
390.5	16697.421
390.8	16875.257
391.1	17074.361
391.3	17316.349
391.6	17560.648
391.8	17810.231
392.1	18050.319
392.3	18272.377
392.6	18492.439
392.8	18702.995
393.1	18909.904
393.3	19110.691
393.6	19322.032
393.8	19543.413
394.1	19771.78
394.4	20005.871
394.6	20228.565
394.9	20452.067
395.1	20667.067
395.4	20885.303
395.6	21108.697
395.9	21318.325
396.1	21540.728
396.4	21753.516
396.6	21954.015
396.9	22149.423
397.1	22336.946
397.4	22503.457
397.6	22650.415
397.9	22795.397
398.2	22946.644
398.4	23069.879
398.7	23184.347
398.9	23286.557
399.2	23388.994
399.4	23493.683
399.7	23613.625
399.9	23732.929
400.2	23881.327
400.4	24053.869
400.7	24283.566
400.9	24544.534
401.2	24829.534
401.4	25126.805
401.7	25426.829
401.9	25693.333
402.2	25935.403
402.5	26116.841
402.7	26280.38
403	26418.881
403.2	26559.238
403.5	26699.324
403.7	26858.593
404	27048.735
404.2	27270.961
404.5	27515.468
404.7	27797.375
405	28064.088
405.2	28332.24
405.5	28555.945
405.7	28756.949
406	28919.693
406.2	29041.981
406.5	29163.557
406.7	29255.42
407	29331.419
407.3	29380.697
407.5	29430.143
407.8	29481.66
408	29519.153
408.3	29540.165
408.5	29579.097
408.8	29625.355
409	29675.84
409.3	29689.597
409.5	29709.359
409.8	29706.428
410	29715.465
410.3	29708.205
410.5	29704.224
410.8	29698.253
411	29686.258
411.3	29691.284
411.5	29698.688
411.8	29699.079
412	29709.057
412.3	29721.608
412.6	29710.017
412.8	29723.684
413.1	29739.172
413.3	29778.484
413.6	29794.916
413.8	29834.143
414.1	29879.816
414.3	29929.846
414.6	29962.693
414.8	29987.115
415.1	29995.757
415.3	30014.399
415.6	30014.526
415.8	30024.48
416.1	30011.387
416.3	30000.887
416.6	29992.811
416.8	29981.809
417.1	29952.031
417.3	29941.542
417.6	29939.404
417.8	29953.32
418.1	29969.087
418.4	29988.478
418.6	29989.074
418.9	29993.58
419.1	29963.178
419.4	29937.12
419.6	29923.174
419.9	29878.936
420.1	29821.238
420.4	29779.097
420.6	29710.337
420.9	29678.439
421.1	29625.518
421.4	29585.111
421.6	29532.067
421.9	29457.892
422.1	29362.558
422.4	29272.745
422.6	29175.869
422.9	29051.826
423.1	28911.853
423.4	28790.026
423.6	28690.28
423.9	28594.109
424.1	28508.483
424.4	28448.232
424.6	28417.613
424.9	28382.713
425.1	28381.798
425.4	28369.121
425.6	28388.297
425.9	28386.448
426.2	28376.795
426.4	28374.911
426.7	28349.562
426.9	28333.631
427.2	28333.84
427.4	28321.965
427.7	28328.423
427.9	28356.897
428.2	28371.901
428.4	28410.433
428.7	28433.601
428.9	28473.584
429.2	28511.644
429.4	28534.583
429.7	28552.856
429.9	28586.005
430.2	28611.854
430.4	28622.787
430.7	28634.666
430.9	28648.99
431.2	28649.231
431.4	28640.474
431.7	28648.496
431.9	28663.577
432.2	28676.812
432.4	28700.43
432.7	28723.297
432.9	28748.19
433.2	28786.822
433.4	28816.024
433.7	28854.242
433.9	28896.478
434.2	28964.857
434.4	29024.857
434.7	29085.524
434.9	29139.967
435.2	29226.686
435.4	29297.273
435.7	29367.018
435.9	29459.891
436.2	29526.033
436.4	29598.078
436.7	29686.374
436.9	29788.37
437.2	29893.977
437.4	30021.985
437.7	30144.63
437.9	30274.509
438.2	30420.889
438.4	30587.853
438.7	30731.781
438.9	30869.879
439.2	30989.456
439.4	31112.625
439.7	31192.178
439.9	31266.357
440.2	31348.601
440.5	31421.979
440.7	31501.005
441	31568.38
441.2	31646.611
441.5	31718.541
441.7	31813.039
442	31932.734
442.2	32019.242
442.5	32113.49
442.7	32224.275
443	32325.267
443.2	32425.319
443.5	32515.451
443.7	32591.808
444	32637.831
444.2	32705.933
444.5	32769.458
444.7	32837.485
445	32901.029
445.2	32941.45
445.5	32982.792
445.7	33052.649
446	33115.053
446.2	33200.296
446.5	33291.689
446.7	33399.314
447	33494.992
447.2	33562.428
447.5	33635.765
447.7	33719.622
448	33796.068
448.2	33878.251
448.5	33961.746
448.7	34062.726
449	34139.974
449.2	34233.466
449.5	34298.354
449.7	34393.795
450	34482.794
450.2	34547.891
450.5	34601.49
450.7	34671.105
451	34748.899
451.2	34813.611
451.5	34888.74
451.7	34959.31
452	35028.565
452.2	35068.388
452.5	35141.862
452.7	35194.344
452.9	35281.803
453.2	35363.147
453.4	35451.991
453.7	35555.064
453.9	35673.326
454.2	35775.498
454.4	35872.252
454.7	35955.504
454.9	36057.26
455.2	36147.277
455.4	36224.334
455.7	36306.594
455.9	36385.544
456.2	36440.578
456.4	36523.625
456.7	36605.637
456.9	36682.43
457.2	36733.371
457.4	36791.106
457.7	36827.05
457.9	36883.492
458.2	36930.565
458.4	36976.233
458.7	37003.93
458.9	37028.525
459.2	37067.637
459.4	37084.553
459.7	37100.339
459.9	37149.416
460.2	37187.233
460.4	37256.829
460.7	37322.046
460.9	37385.12
461.2	37455.457
461.4	37526.651
461.7	37581.222
461.9	37644.898
462.2	37688.828
462.4	37744.781
462.7	37793.297
462.9	37834.551
463.2	37873.521
463.4	37896.804
463.7	37920.54
463.9	37943.665
464.2	37975.354
464.4	38009.132
464.7	38029.372
464.9	38051.474
465.2	38066.79
465.4	38105.22
465.7	38157.806
465.9	38192.862
466.2	38227.986
466.4	38281.102
466.6	38322.414
466.9	38371.838
467.1	38411.411
467.4	38494.972
467.6	38534.278
467.9	38605.43
468.1	38657.702
468.4	38711.362
468.6	38768.637
468.9	38801.624
469.1	38829.363
469.4	38872.745
469.6	38923.234
469.9	38977.453
470.1	39023.817
470.4	39090.619
470.6	39146.383
470.9	39200.558
471.1	39265.331
471.4	39340.426
471.6	39399.135
471.9	39486.903
472.1	39557.779
472.4	39649.729
472.6	39747.051
472.9	39854.316
473.1	39938.298
473.4	40027.544
473.6	40127.054
473.9	40248.124
474.1	40366.184
474.3	40494.515
474.6	40629.452
474.8	40762.029
475.1	40865.476
475.3	40994.348
475.6	41104.992
475.8	41238.096
476.1	41370.985
476.3	41498.421
476.6	41608.109
476.8	41732.026
477.1	41835.292
477.3	41951.641
477.6	42071.719
477.8	42178.304
478.1	42274.324
478.3	42367.748
478.6	42439.776
478.8	42498.812
479.1	42541.304
479.3	42602.218
479.6	42639.604
479.8	42707.102
480.1	42780.538
480.3	42849.734
480.5	42929.327
480.8	43009.804
481	43112.984
481.3	43212.31
481.5	43288.778
481.8	43390.37
482	43501.638
482.3	43613.731
482.5	43713.811
482.8	43837.09
483	43950.444
483.3	44058.713
483.5	44175.777
483.8	44282.281
484	44403.058
484.3	44510.354
484.5	44601.982
484.8	44690.431
485	44769.297
485.2	44851.708
485.5	44930.408
485.7	45013.204
486	45088.514
486.2	45159.375
486.5	45231.235
486.7	45319.982
487	45391.025
487.2	45472.172
487.5	45545.559
487.7	45617.639
488	45698.027
488.2	45762.393
488.5	45824.459
488.7	45880.998
489	45934.263
489.2	45987.377
489.5	46045.591
489.7	46084.587
489.9	46127.793
490.2	46170.693
490.4	46212.511
490.7	46252.418
490.9	46278.408
491.2	46298.479
491.4	46321.334
491.7	46354.914
491.9	46385.957
492.2	46422.591
492.4	46456.03
492.7	46487.795
492.9	46528.377
493.2	46587.674
493.4	46641.071
493.6	46709.238
493.9	46784.253
494.1	46864.783
494.4	46926.146
494.6	46990.176
494.9	47032.032
495.1	47070.274
495.4	47114.619
495.6	47145.134
495.9	47173.114
496.1	47181.262
496.4	47178.398
496.6	47188.79
496.9	47182.124
497.1	47163.006
497.3	47144.576
497.6	47120.774
497.8	47096.799
498.1	47073.658
498.3	47063.262
498.6	47047.203
498.8	47037.813
499.1	47023.779
499.3	47027.446
499.6	47023.789
499.8	47015.341
500.1	47013.761
500.3	46997.113
500.6	46979.175
500.8	46957.22
501	46937.931
501.3	46912.036
501.5	46899.281
501.8	46867.416
502	46840.277
502.3	46801.775
502.5	46766.355
502.8	46727.522
503	46680.048
503.3	46641.665
503.5	46615.179
503.8	46570.845
504	46539.973
504.2	46507.51
504.5	46473.879
504.7	46437.438
505	46401.51
505.2	46360.294
505.5	46318.104
505.7	46276.607
506	46243.68
506.2	46210.749
506.5	46165.104
506.7	46111.899
506.9	46062.611
507.2	46006.918
507.4	45955.644
507.7	45913.642
507.9	45870.685
508.2	45820.315
508.4	45786.059
508.7	45751.859
508.9	45710.235
509.2	45653.324
509.4	45587.843
509.7	45507.756
509.9	45425.088
510.1	45342.889
510.4	45245.64
510.6	45146.938
510.9	45052.653
511.1	44959.894
511.4	44878.592
511.6	44802.125
511.9	44739.595
512.1	44682.489
512.4	44627.906
512.6	44577.213
512.8	44522.59
513.1	44465.266
513.3	44398.65
513.6	44344.174
513.8	44288.4
514.1	44233.845
514.3	44178.128
514.6	44128.882
514.8	44086.187
515.1	44037.711
515.3	43992.408
515.5	43941.399
515.8	43894.926
516	43841.718
516.3	43811.399
516.5	43759.306
516.8	43721.986
517	43688.553
517.3	43649.724
517.5	43607.523
517.7	43577.335
518	43550.124
518.2	43511.112
518.5	43458.174
518.7	43416.216
519	43344.357
519.2	43265.614
519.5	43177.864
519.7	43097.389
520	43008.506
520.2	42930.393
520.4	42858.641
520.7	42783.159
520.9	42725.18
521.2	42671.115
521.4	42636.049
521.7	42608.177
521.9	42585.563
522.2	42565.096
522.4	42542.786
522.6	42511.469
522.9	42483.221
523.1	42458.144
523.4	42446.67
523.6	42427.345
523.9	42425.081
524.1	42438.167
524.4	42458.993
524.6	42494.947
524.8	42529.371
525.1	42539.607
525.3	42559.652
525.6	42585.952
525.8	42585.695
526.1	42607.713
526.3	42626.358
526.6	42629.86
526.8	42619.633
527	42610.574
527.3	42591.672
527.5	42576.492
527.8	42561.874
528	42543.462
528.3	42526.64
528.5	42513.909
528.8	42492.907
529	42464.598
529.2	42427.29
529.5	42394.213
529.7	42356.499
530	42313.65
530.2	42276.437
530.5	42243.998
530.7	42219.296
531	42201.342
531.2	42152.487
531.4	42113.287
531.7	42063.003
