Data from mesure_FLMT021711__11__33.txt Node

Date: Mon Nov 04 11:51:58 CET 2024
User: jordan.swietlicki
Spectrometer: FLMT02171
Trigger mode: 0
Integration Time (sec): 1.000000E-1
Scans to average: 15
Electric dark correction enabled: true
Nonlinearity correction enabled: false
Boxcar width: 15
XAxis mode: Wavelengths
Number of Pixels in Spectrum: 3648
>>>>>Begin Spectral Data<<<<<
194.7	-42.401
194.9	-40.895
195.2	-35.549
195.5	-34.746
195.7	-30.774
196	-29.385
196.2	-28.185
196.5	-28.854
196.8	-27.251
197	-26.384
197.3	-26.226
197.6	-23.067
197.8	-23.098
198.1	-21.304
198.4	-19.279
198.6	-18.279
198.9	-14.179
199.2	-9.314
199.4	-4.332
199.7	1.936
200	2.106
200.2	0.854
200.5	0.307
200.7	-0.663
201	0.111
201.3	-0.206
201.5	0.65
201.8	0.02
202.1	1.087
202.3	1.359
202.6	1.291
202.9	0.05
203.1	1.574
203.4	-0.546
203.7	-0.534
203.9	-1.9
204.2	-1.522
204.5	-1.232
204.7	-0.312
205	-0.417
205.2	0.797
205.5	1.472
205.8	0.582
206	3.709
206.3	3.607
206.6	4.037
206.8	4.116
207.1	4.859
207.4	5.9
207.6	8.095
207.9	8.898
208.2	9.867
208.4	11.161
208.7	11.229
208.9	13.152
209.2	13.069
209.5	12.76
209.7	12.768
210	13.069
210.3	13.401
210.5	14.208
210.8	14.932
211.1	14.604
211.3	14.314
211.6	13.575
211.9	13.865
212.1	14.069
212.4	13.925
212.6	14.363
212.9	14.159
213.2	12.998
213.4	12.654
213.7	13.243
214	13.33
214.2	10.882
214.5	10.84
214.8	10.203
215	10.486
215.3	13.548
215.5	14.453
215.8	13.269
216.1	12.153
216.3	13.043
216.6	12.168
216.9	13.054
217.1	13.646
217.4	13.616
217.7	13.963
217.9	11.576
218.2	11.448
218.5	11.316
218.7	10.282
219	10.079
219.2	11.395
219.5	12.126
219.8	13.201
220	12.93
220.3	13.876
220.6	14.442
220.8	12.949
221.1	13.737
221.4	13.462
221.6	12.779
221.9	13.744
222.1	13.405
222.4	13.043
222.7	14.721
222.9	12.16
223.2	11.263
223.5	8.121
223.7	9.215
224	8.189
224.2	7.71
224.5	7.42
224.8	8.249
225	7.503
225.3	7.065
225.6	6.269
225.8	7.48
226.1	9.724
226.4	9.072
226.6	6.975
226.9	8.604
227.1	9.279
227.4	9.381
227.7	8.034
227.9	7.201
228.2	8.072
228.5	6.296
228.7	5.538
229	5.628
229.3	6.232
229.5	9.517
229.8	10.46
230	9.886
230.3	8.728
230.6	9.377
230.8	7.721
231.1	10.071
231.4	9.954
231.6	14.544
231.9	12.775
232.1	13.756
232.4	12.575
232.7	12.33
232.9	11.651
233.2	11.263
233.5	10.46
233.7	12.172
234	11.176
234.2	9.931
234.5	10.995
234.8	14.144
235	13.16
235.3	13.25
235.6	13.296
235.8	13.778
236.1	15.951
236.4	15.785
236.6	17.35
236.9	17.863
237.1	19.3
237.4	18.968
237.7	15.347
237.9	14.167
238.2	12.274
238.5	13.133
238.7	12.99
239	12.892
239.2	11.549
239.5	12.96
239.8	9.351
240	8.706
240.3	10.81
240.6	11.772
240.8	10.999
241.1	11.165
241.3	11.055
241.6	10.501
241.9	7.574
242.1	7.77
242.4	8.845
242.7	8.596
242.9	8.819
243.2	8.114
243.4	8.001
243.7	7.804
244	6.009
244.2	5.247
244.5	4.527
244.8	5.704
245	5.643
245.3	7.205
245.5	6.945
245.8	7.484
246.1	7.122
246.3	7.182
246.6	8.08
246.9	8.894
247.1	9.407
247.4	11.067
247.6	12.153
247.9	11.561
248.2	12.157
248.4	9.486
248.7	9.845
248.9	9.701
249.2	9.279
249.5	10.392
249.7	11.278
250	11.549
250.3	11.357
250.5	10.03
250.8	11.968
251	9.867
251.3	10.882
251.6	11.806
251.8	12.085
252.1	11.991
252.4	9.4
252.6	10.026
252.9	7.657
253.1	7.589
253.4	4.814
253.7	4.87
253.9	5.926
254.2	7.11
254.4	7.955
254.7	6.628
255	7.239
255.2	8.355
255.5	7.235
255.8	5.492
256	5.975
256.3	6.1
256.5	6.047
256.8	5.624
257.1	5.824
257.3	5.519
257.6	5.455
257.8	5.794
258.1	7.031
258.4	7.763
258.6	9.268
258.9	8.721
259.2	7.627
259.4	7.065
259.7	4.169
259.9	2.592
260.2	4.768
260.5	7.318
260.7	6.986
261	7.167
261.2	6.462
261.5	7.382
261.8	6.809
262	8.023
262.3	7.058
262.6	6.718
262.8	6.22
263.1	4.768
263.3	3.505
263.6	4.21
263.9	3.988
264.1	4.014
264.4	5.285
264.6	5.621
264.9	5.425
265.2	6.277
265.4	5.376
265.7	5.873
266	4.87
266.2	6.213
266.5	5.579
266.7	3.071
267	-0.168
267.3	1.136
267.5	2.487
267.8	4.768
268	5.938
268.3	5.311
268.6	3.328
268.8	4.493
269.1	3.682
269.3	3.083
269.6	2.125
269.9	2.389
270.1	0.277
270.4	1.257
270.6	1.676
270.9	1.378
271.2	0.978
271.4	-1.556
271.7	-3.51
272	-3.589
272.2	-2.412
272.5	-4.385
272.7	-3.235
273	-2.933
273.3	-2.446
273.5	0.729
273.8	-0.629
274	0.254
274.3	-2.126
274.6	-1.7
274.8	1.887
275.1	4.252
275.3	5.756
275.6	4.78
275.9	2.89
276.1	2.604
276.4	2.177
276.6	3.328
276.9	2.159
277.2	3.731
277.4	3.924
277.7	6.085
277.9	7.314
278.2	8.05
278.5	9.045
278.7	9.053
279	9.151
279.2	9.041
279.5	10.573
279.8	12.221
280	12.541
280.3	10.41
280.5	9.743
280.8	9.185
281.1	8.574
281.3	8.966
281.6	7.11
281.9	8.51
282.1	8.638
282.4	9.023
282.6	9.566
282.9	8.291
283.2	7.657
283.4	6.213
283.7	5.756
283.9	5.832
284.2	6.831
284.5	6.107
284.7	4.889
285	4.848
285.2	2.977
285.5	5.176
285.8	3.705
286	6.681
286.3	8.332
286.5	6.895
286.8	7.11
287.1	8.578
287.3	8.97
287.6	8.551
287.8	8.785
288.1	6.831
288.4	7.378
288.6	10.214
288.9	10.124
289.1	11.07
289.4	9.468
289.7	10.403
289.9	8.811
290.2	9.781
290.4	10.893
290.7	9.535
290.9	7.733
291.2	8.683
291.5	10.052
291.7	11.218
292	12.941
292.2	11.874
292.5	13.126
292.8	15.061
293	14.137
293.3	15.623
293.5	16.026
293.8	16.109
294.1	13.288
294.3	11.221
294.6	11.516
294.8	12.126
295.1	11.806
295.4	11.859
295.6	12.096
295.9	12.82
296.1	13.179
296.4	13.903
296.7	10.731
296.9	10.961
297.2	8.883
297.4	9.83
297.7	8.227
298	9.358
298.2	8.027
298.5	8.721
298.7	10.305
299	12.432
299.3	11.813
299.5	9.441
299.8	9.864
300	10.229
300.3	10.245
300.5	10.41
300.8	8.31
301.1	11.252
301.3	11.994
301.6	9.577
301.8	7.605
302.1	6.235
302.4	7.069
302.6	7.107
302.9	7.239
303.1	5.919
303.4	6.537
303.7	7.439
303.9	4.942
304.2	5.677
304.4	5.059
304.7	6.684
304.9	5.153
305.2	7.555
305.5	7.661
305.7	7.401
306	7.789
306.2	8.974
306.5	8.936
306.8	7.533
307	4.919
307.3	5.319
307.5	6.281
307.8	4.184
308.1	1.657
308.3	2.573
308.6	1.404
308.8	3.271
309.1	2.856
309.3	3.007
309.6	2.381
309.9	4.301
310.1	4.704
310.4	5.666
310.6	6.575
310.9	5.153
311.2	6.085
311.4	6.149
311.7	6.496
311.9	7.175
312.2	7.616
312.5	8.042
312.7	8.28
313	7.744
313.2	7.393
313.5	6.183
313.7	5.609
314	4.191
314.3	3.339
314.5	3.727
314.8	4.795
315	6.726
315.3	5.719
315.6	4.259
315.8	4.61
316.1	5.262
316.3	4.342
316.6	5.345
316.8	4.938
317.1	3.603
317.4	1.185
317.6	1.664
317.9	1.295
318.1	0.756
318.4	0.465
318.6	-0.21
318.9	-0.187
319.2	-0.813
319.4	-1.138
319.7	-2.25
319.9	-2.058
320.2	-2.084
320.5	-1.749
320.7	-1.243
321	-0.896
321.2	-1.847
321.5	-0.357
321.7	0.895
322	1.94
322.3	0.888
322.5	0.537
322.8	-0.542
323	-1.051
323.3	-0.021
323.5	1.276
323.8	2.317
324.1	3.207
324.3	4.161
324.6	3.23
324.8	4.282
325.1	3.365
325.4	5.315
325.6	6.714
325.9	6.771
326.1	8.468
326.4	7.574
326.6	6.522
326.9	7.288
327.2	7.827
327.4	7.887
327.7	8.789
327.9	9.822
328.2	10.15
328.4	9.973
328.7	11.806
329	12.847
329.2	13.39
329.5	12.745
329.7	12.771
330	13.348
330.2	15.147
330.5	14.872
330.8	14.457
331	15.679
331.3	14.254
331.5	14.397
331.8	12.726
332	12.228
332.3	10.501
332.6	11.199
332.8	9.826
333.1	11.323
333.3	11.859
333.6	11.583
333.8	12.025
334.1	11.089
334.4	10.018
334.6	9.826
334.9	8.615
335.1	8.355
335.4	7.325
335.6	7.555
335.9	6.107
336.2	4.802
336.4	4.7
336.7	1.906
336.9	2.513
337.2	2.159
337.4	1.838
337.7	1.355
338	-0.636
338.2	-0.9
338.5	-2.394
338.7	-2.307
339	-2.198
339.2	0.062
339.5	-0.791
339.8	0.28
340	0.752
340.3	1.393
340.5	1.231
340.8	4.237
341	3.973
341.3	1.778
341.6	1.721
341.8	2.208
342.1	0.759
342.3	1.925
342.6	3.03
342.8	4.007
343.1	4.474
343.4	4.561
343.6	2.849
343.9	3.886
344.1	4.791
344.4	4.372
344.6	3.38
344.9	2.547
345.1	2.996
345.4	3.362
345.7	3.618
345.9	4.448
346.2	3.448
346.4	3.577
346.7	2.845
346.9	3.098
347.2	1.333
347.5	2.166
347.7	2.332
348	1.042
348.2	1.223
348.5	1.174
348.7	2.777
349	2.521
349.2	4.719
349.5	4.64
349.8	3.761
350	4.942
350.3	4.919
350.5	4.727
350.8	4.765
351	4.448
351.3	5.93
351.6	5.987
351.8	4.953
352.1	4.433
352.3	4.734
352.6	6.311
352.8	6.296
353.1	6.179
353.3	5.398
353.6	4.81
353.9	4.655
354.1	5.066
354.4	6.752
354.6	8.713
354.9	6.828
355.1	8.057
355.4	7.842
355.6	8.076
355.9	8.555
356.2	9.03
356.4	9.449
356.7	5.006
356.9	5.474
357.2	4.934
357.4	5.817
357.7	5.293
358	6.888
358.2	6.609
358.5	6.111
358.7	6.107
359	6.903
359.2	7.001
359.5	7.114
359.7	9.445
360	9.886
360.3	11.67
360.5	10.852
360.8	10.576
361	12.194
361.3	11.847
361.5	12.56
361.8	12.579
362	12.696
362.3	11.493
362.6	11.772
362.8	14.208
363.1	15.098
363.3	15.811
363.6	16.415
363.8	17.584
364.1	16.185
364.3	16.592
364.6	17.493
364.8	18.451
365.1	17.565
365.4	19.507
365.6	21.057
365.9	19.907
366.1	21.17
366.4	21.02
366.6	21.51
366.9	22.291
367.1	22.155
367.4	24.501
367.7	24.112
367.9	24.587
368.2	23.241
368.4	22.981
368.7	24.101
368.9	24.421
369.2	23.494
369.4	24.331
369.7	25.5
370	25.455
370.2	26.205
370.5	26.028
370.7	25.572
371	25.413
371.2	25.379
371.5	26.247
371.7	26.556
372	27.495
372.2	28.012
372.5	29.264
372.8	28.389
373	27.861
373.3	24.112
373.5	25.817
373.8	25.27
374	23.565
374.3	25.379
374.5	26.066
374.8	26.462
375	25.817
375.3	25.466
375.6	24.697
375.8	25.839
376.1	26.228
376.3	27.952
376.6	27.993
376.8	25.609
377.1	29.151
377.3	28.434
377.6	27.793
377.8	29.185
378.1	30.686
378.4	31.15
378.6	30.143
378.9	28.28
379.1	29.63
379.4	29.189
379.6	28.223
379.9	27.352
380.1	26.986
380.4	25.836
380.6	26.869
380.9	28.155
381.2	29.215
381.4	28.159
381.7	29.856
381.9	31.655
382.2	32.696
382.4	31.847
382.7	30.618
382.9	31.248
383.2	31.912
383.4	32.357
383.7	33.903
383.9	33.899
384.2	33.416
384.5	34.646
384.7	36.173
385	35.163
385.2	36.226
385.5	37.399
385.7	37.422
386	38.187
386.2	38.515
386.5	37.693
386.7	40.167
387	39.82
387.2	41.544
387.5	44.093
387.8	46.168
388	47.446
388.3	49.215
388.5	49.913
388.8	51.689
389	53.62
389.3	53.186
389.5	52.474
389.8	54.027
390	52.368
390.3	52.866
390.5	53.039
390.8	55.966
391.1	56.381
391.3	56.939
391.6	56.06
391.8	57.501
392.1	57.969
392.3	59.798
392.6	61.748
392.8	62.754
393.1	65.915
393.3	68.419
393.6	68.94
393.8	68.891
394.1	71.444
394.4	75.593
394.6	77.286
394.9	78.968
395.1	79.526
395.4	79.36
395.6	82.328
395.9	82.724
396.1	83.328
396.4	85.085
396.6	86.511
396.9	86.865
397.1	89.14
397.4	92.285
397.6	92.941
397.9	96.743
398.2	99.877
398.4	103.901
398.7	104.818
398.9	106.089
399.2	108.664
399.4	110.818
399.7	111.885
399.9	113.673
400.2	113.892
400.4	115.464
400.7	118.67
400.9	118.206
401.2	119.545
401.4	121.925
401.7	123.305
401.9	123.445
402.2	122.566
402.5	123.501
402.7	122.132
403	122.63
403.2	124.938
403.5	125.47
403.7	127.163
404	129.445
404.2	129.554
404.5	132.112
404.7	135.702
405	138.5
405.2	139.489
405.5	142.019
405.7	144.248
406	146.413
406.2	147.665
406.5	148.936
406.7	149.879
407	150.531
407.3	151.614
407.5	152.994
407.8	154.895
408	154.601
408.3	155.981
408.5	157.901
408.8	158.187
409	159.673
409.3	161.231
409.5	164.086
409.8	165.149
410	168.676
410.3	170.196
410.5	176.09
410.8	177.056
411	178.651
411.3	180.993
411.5	184.018
411.8	184.369
412	185.199
412.3	185.742
412.6	187.028
412.8	187.624
413.1	188.106
413.3	189.076
413.6	188.31
413.8	188.755
414.1	189.264
414.3	190.818
414.6	192.892
414.8	193.073
415.1	193.696
415.3	195.234
415.6	197.316
415.8	199.473
416.1	200.669
416.3	199.609
416.6	203.109
416.8	203.584
417.1	206.255
417.3	205.033
417.6	207.661
417.8	208.619
418.1	210.037
418.4	210.15
418.6	212.459
418.9	213.236
419.1	213.911
419.4	214.589
419.6	216.347
419.9	218.568
420.1	218.463
420.4	218.685
420.6	219.292
420.9	219.066
421.1	219.556
421.4	221.34
421.6	221.299
421.9	222.178
422.1	221.431
422.4	222.114
422.6	224.614
422.9	224.109
423.1	224.49
423.4	225.915
423.6	227.386
423.9	229.479
424.1	231.418
424.4	230.362
424.6	229.604
424.9	228.661
425.1	228.857
425.4	226.624
425.6	228.246
425.9	226.937
426.2	227.148
426.4	225.662
426.7	225.583
426.9	223.087
427.2	219.47
427.4	218.123
427.7	217.305
427.9	216.339
428.2	215.54
428.4	215.932
428.7	217.622
428.9	218.893
429.2	219.934
429.4	221.337
429.7	221.012
429.9	219.338
430.2	218.629
430.4	218.448
430.7	221.156
430.9	221.529
431.2	220.179
431.4	220.711
431.7	220.507
431.9	219.677
432.2	221.842
432.4	223.275
432.7	224.237
432.9	227.963
433.2	232.085
433.4	231.523
433.7	234.084
433.9	234.706
434.2	235.695
434.4	236.045
434.7	239.523
434.9	242.758
435.2	244.746
435.4	245.176
435.7	247.356
435.9	248.714
436.2	250.365
436.4	250.92
436.7	250.128
436.9	249.807
437.2	249.592
437.4	251.508
437.7	256.143
437.9	258.369
438.2	259.383
438.4	260.718
438.7	262.148
438.9	264.146
439.2	263.909
439.4	262.43
439.7	264.252
439.9	264.101
440.2	264.105
440.5	264.889
440.7	264.542
441	264.904
441.2	265.659
441.5	265.399
441.7	266.055
442	268.125
442.2	269.536
442.5	268.898
442.7	270.973
443	271.674
443.2	275.031
443.5	274.771
443.7	276.215
444	275.208
444.2	277.06
444.5	279.334
444.7	281.08
445	282.253
445.2	283.124
445.5	281.273
445.7	282.046
446	282.253
446.2	282.804
446.5	284.791
446.7	286.043
447	287.209
447.2	289.351
447.5	290.931
447.7	291.101
448	292.425
448.2	294.035
448.5	294.224
448.7	294.823
449	294.85
449.2	296
449.5	296.351
449.7	296.192
450	296.26
450.2	298.734
450.5	297.663
450.7	299.338
451	298.546
451.2	300.59
451.5	300.009
451.7	302.404
452	304.682
452.2	305.712
452.5	305.821
452.7	307.537
452.9	307.39
453.2	308.68
453.4	310.26
453.7	313.089
453.9	312.64
454.2	312.474
454.4	311.606
454.7	314.22
454.9	314.243
455.2	313.726
455.4	314.552
455.7	316.517
455.9	314.85
456.2	316.539
456.4	317.143
456.7	318.093
456.9	317.399
457.2	317.365
457.4	319.394
457.7	321.699
457.9	322.415
458.2	323.581
458.4	323.784
458.7	325.689
458.9	325.229
459.2	326.485
459.4	328.525
459.7	328.453
459.9	326.847
460.2	327.133
460.4	326.221
460.7	328.631
460.9	330.969
461.2	330.136
461.4	328.578
461.7	329.766
461.9	329.943
462.2	329.74
462.4	328.797
462.7	330.392
462.9	329.751
463.2	329.875
463.4	327.578
463.7	329.34
463.9	328.469
464.2	327.665
464.4	328.091
464.7	330.004
464.9	329.423
465.2	329.442
465.4	328.804
465.7	328.929
465.9	329.747
466.2	330.06
466.4	328.559
466.6	329.37
466.9	327.876
467.1	325.255
467.4	324.539
467.6	326.481
467.9	325.881
468.1	326.168
468.4	323.86
468.6	322.317
468.9	321.42
469.1	321.242
469.4	321.529
469.6	320.911
469.9	320.903
470.1	322.133
470.4	319.609
470.6	321.027
470.9	322.476
471.1	324.652
471.4	323.498
471.6	322.774
471.9	324.527
472.1	324.716
472.4	323.249
472.6	324.444
472.9	323.837
473.1	324.542
473.4	324.806
473.6	324.874
473.9	324.222
474.1	325.067
474.3	325.225
474.6	327.846
474.8	327.299
475.1	326.885
475.3	325.749
475.6	325.832
475.8	326.538
476.1	327.767
476.3	327.428
476.6	328.514
476.8	329.132
477.1	331.252
477.3	331.44
477.6	332.527
477.8	331.648
478.1	332.613
478.3	333.371
478.6	334.963
478.8	333.7
479.1	333.349
479.3	333.711
479.6	333.651
479.8	332.791
480.1	334.126
480.3	334.084
480.5	334.19
480.8	332.877
481	332.436
481.3	331.316
481.5	331.403
481.8	330.445
482	331.248
482.3	329.476
482.5	327.907
482.8	326.896
483	326.142
483.3	325.859
483.5	326.289
483.8	324.294
484	322.351
484.3	320.115
484.5	320.643
484.8	318.991
485	317.999
485.2	316.147
485.5	316.404
485.7	314.937
486	313.518
486.2	311.037
486.5	312.123
486.7	311.621
487	312.447
487.2	310.452
487.5	310.762
487.7	311.55
488	309.377
488.2	307.435
488.5	305.821
488.7	303.577
489	301.842
489.2	299.666
489.5	299.13
489.7	297.565
489.9	295.329
490.2	295.129
490.4	294.986
490.7	295.163
490.9	293.436
491.2	290.901
491.4	291.237
491.7	292.753
491.9	292.447
492.2	290.663
492.4	288.427
492.7	288.589
492.9	288.963
493.2	286.481
493.4	285.202
493.6	283.215
493.9	282.66
494.1	278.84
494.4	277.592
494.6	274.495
494.9	271.406
495.1	269.17
495.4	266.055
495.6	266.654
495.9	266.666
496.1	266.115
496.4	265.96
496.6	266.971
496.9	269.196
497.1	266.828
497.3	264.689
497.6	263.543
497.8	263.931
498.1	260.439
498.3	257.716
498.6	255.095
498.8	252.666
499.1	251.323
499.3	250.332
499.6	250.384
499.8	248.672
500.1	245.542
500.3	243.204
500.6	240.488
500.8	238.689
501	239.066
501.3	237.037
501.5	233.145
501.8	232.821
502	232.983
502.3	230.041
502.5	228.054
502.8	227.642
503	227.507
503.3	223.92
503.5	220.492
503.8	219.119
504	216.487
504.2	214.903
504.5	211.878
504.7	211.727
505	209.902
505.2	210.648
505.5	209.309
505.7	209.211
506	207.71
506.2	208.665
506.5	208.189
506.7	205.466
506.9	202.8
507.2	200.824
507.4	197.433
507.7	197.607
507.9	196.155
508.2	197.241
508.4	195.016
508.7	193.017
508.9	191.508
509.2	191.885
509.4	190.81
509.7	188.966
509.9	190.098
510.1	189.441
510.4	186.816
510.6	183.55
510.9	183.879
511.1	184.942
511.4	185.078
511.6	184.671
511.9	181.955
512.1	178.485
512.4	177.822
512.6	178.169
512.8	174.891
513.1	171.727
513.3	170.886
513.6	169.291
513.8	167.518
514.1	164.791
514.3	163.358
514.6	162.641
514.8	160.081
515.1	160.793
515.3	158.614
515.5	157.742
515.8	155.506
516	155.453
516.3	153.601
516.5	151.776
516.8	149.475
517	147.367
517.3	145.67
517.5	144.116
517.7	143.271
518	141.906
518.2	140.612
518.5	139.243
518.7	137.346
519	134.457
519.2	133.149
519.5	132.085
519.7	131.734
520	129.788
520.2	128.001
520.4	128.608
520.7	130.32
520.9	129.287
521.2	128.517
521.4	127.092
521.7	128.857
521.9	128.483
522.2	125.889
522.4	127.337
522.6	126.379
522.9	126.575
523.1	126.043
523.4	125.877
523.6	123.731
523.9	124.354
524.1	124.659
524.4	123.75
524.6	122.8
524.8	120.858
525.1	119.609
525.3	120.895
525.6	121.634
525.8	123.234
526.1	122.977
526.3	123.324
526.6	122.362
526.8	120.582
527	122.83
527.3	122.713
527.5	122.193
527.8	121.536
528	119.903
528.3	120.288
528.5	119.975
528.8	118.678
529	118.651
529.2	119.82
529.5	119.583
529.7	121.959
530	120.582
530.2	121.02
530.5	119.323
530.7	118.029
531	117.037
531.2	118.572
531.4	117.58
531.7	118.659
531.9	117.931
532.2	118.097
532.4	118.534
532.7	119.387
532.9	117.516
533.2	115.638
533.4	113.548
533.6	112.055
533.9	109.683
534.1	109.317
534.4	109.735
534.6	109.702
534.9	108.234
535.1	107.529
535.3	107.186
535.6	107.22
535.8	104.225
536.1	104.105
536.3	105.036
536.6	105.553
536.8	103.2
537.1	103.249
537.3	100.903
537.5	101.11
537.8	99.466
538	100.443
538.3	99.703
538.5	98.534
538.8	97.32
539	94.959
539.2	93.703
539.5	94.001
539.7	94.834
540	94.45
540.2	94.752
540.5	94.193
540.7	95.845
540.9	95.958
541.2	96.732
541.4	100.446
541.7	103.154
541.9	103.55
542.2	99.877
542.4	100.209
542.7	100.348
542.9	100.616
543.1	100.084
543.4	102.758
543.6	102.528
543.9	103.343
544.1	102.11
544.4	101.212
544.6	100.001
544.8	101.001
545.1	99.911
545.3	99.975
545.6	100.13
545.8	101.076
546.1	100.631
546.3	100.737
546.5	102.438
546.8	103.92
547	103.777
547.3	102.713
547.5	102.634
547.8	101.193
548	101.6
548.2	101.129
548.5	99.202
548.7	99.179
549	95.438
549.2	95.555
549.5	94.039
549.7	95.144
549.9	94.966
550.2	93.986
550.4	93.243
550.7	93.477
550.9	89.2
551.2	89.306
551.4	87.808
551.6	87.842
551.9	88.084
552.1	87.227
552.4	86.058
552.6	84.531
552.9	85.066
553.1	82.826
553.3	81.8
553.6	81.793
553.8	80.228
554.1	81.721
554.3	78.859
554.5	77.946
554.8	75.819
555	75.234
555.3	73.522
555.5	72.368
555.8	69.901
556	70.441
556.2	67.695
556.5	68.001
556.7	65.47
557	67.005
557.2	65.33
557.5	65.587
557.7	66.979
557.9	65.368
558.2	64.731
558.4	66.722
558.7	64.885
558.9	65.866
559.2	65.56
559.4	64.934
559.6	66.409
559.9	67.19
560.1	66.028
560.4	66.677
560.6	66.828
560.8	66.684
561.1	66.19
561.3	67.831
561.6	65.734
561.8	65.708
562.1	65.345
562.3	66.752
562.5	66.613
562.8	68.796
563	68.08
563.3	69.57
563.5	69.475
563.7	70.113
564	69.155
564.2	68.216
564.5	66.522
564.7	68.095
565	68.348
565.2	65.873
565.4	66.507
565.7	68.615
565.9	67.797
566.2	68.476
566.4	66.858
566.6	68.687
566.9	69.645
567.1	69.939
567.4	68.947
567.6	70.724
567.9	68.197
568.1	68.894
568.3	69.124
568.6	70.399
568.8	70.927
569.1	69.573
569.3	67.804
569.5	67.804
569.8	68.197
570	68.08
570.3	67.589
570.5	68.34
570.7	68.419
571	69.068
571.2	70.045
571.5	69.471
571.7	69.207
572	70.143
572.2	69.019
572.4	69.958
572.7	71.497
572.9	73.122
573.2	70.678
573.4	69.117
573.6	68.197
573.9	68.4
574.1	65.734
574.4	62.385
574.6	61.717
574.8	60.767
575.1	60.424
575.3	61.284
575.6	60.28
575.8	59.289
576	57.184
576.3	55.924
576.5	58.904
576.8	62.347
577	63.592
577.3	63.942
577.5	63.641
577.7	63.863
578	63.75
578.2	63.188
578.5	61.751
578.7	61.57
578.9	62.509
579.2	62.049
579.4	60.891
579.7	61.253
579.9	58.579
580.1	57.331
580.4	55.66
580.6	56.283
580.9	58.07
581.1	58.478
581.3	58.583
581.6	56.23
