Data from FLMT021711__23__16-32-47-106.txt Node

Date: Tue Nov 05 16:32:47 CET 2024
User: Etudiants TP
Spectrometer: FLMT02171
Trigger mode: 0
Integration Time (sec): 1,000000E-1
Scans to average: 5
Electric dark correction enabled: true
Nonlinearity correction enabled: false
Boxcar width: 15
XAxis mode: Wavelengths
Number of Pixels in Spectrum: 3648
>>>>>Begin Spectral Data<<<<<
194,658	-45,35
194,923	-44,13
195,188	-38,71
195,453	-39,08
195,717	-34,5
195,982	-33,52
196,247	-32,88
196,512	-36,14
196,777	-34,97
197,042	-34,35
197,307	-33,84
197,572	-30,7
197,837	-31,06
198,101	-29,12
198,366	-27,45
198,631	-26,77
198,896	-23,1
199,161	-18,24
199,425	-13,27
199,69	-5,72
199,955	-6,45
200,22	-9,66
200,484	-10,6
200,749	-10,02
201,014	-9,55
201,278	-9,68
201,543	-9,66
201,807	-10,33
202,072	-10,14
202,337	-11,01
202,601	-10,53
202,866	-14,58
203,13	-12,43
203,395	-14,73
203,659	-13,89
203,924	-15,53
204,189	-14,44
204,453	-12,65
204,717	-9,56
204,982	-8,63
205,246	-7,07
205,511	-6,62
205,775	-7,13
206,04	-3,4
206,304	-3,11
206,568	-1,02
206,833	-0,56
207,097	0,49
207,361	1,95
207,626	4,54
207,89	5,93
208,154	6,94
208,419	8,17
208,683	8,84
208,947	11,2
209,211	11,06
209,476	10,94
209,74	11,95
210,004	12,22
210,268	13,47
210,532	16,32
210,796	17,16
211,061	18,88
211,325	18,49
211,589	17,32
211,853	17,36
212,117	18,06
212,381	17,76
212,645	18,39
212,909	17,02
213,173	14,8
213,437	15,38
213,701	16,33
213,965	16,3
214,229	13,2
214,493	12,73
214,757	10,76
215,021	10,15
215,285	13,78
215,549	14,01
215,813	10,63
216,077	8,7
216,34	10,36
216,604	10,38
216,868	11,58
217,132	11,38
217,396	10,95
217,659	11,06
217,923	8,49
218,187	7,14
218,451	5,9
218,714	5,05
218,978	5
219,242	6,56
219,505	7,28
219,769	9,22
220,033	8,96
220,296	8,65
220,56	8,58
220,824	5,14
221,087	6,87
221,351	6,28
221,614	5,82
221,878	6,3
222,142	4,05
222,405	4,35
222,669	6,29
222,932	4,1
223,196	3,99
223,459	1
223,722	2,29
223,986	3,43
224,249	2,92
224,513	2,87
224,776	2,95
225,04	1,85
225,303	2,09
225,566	1,87
225,83	3,64
226,093	4,72
226,356	4,24
226,62	3,89
226,883	4,18
227,146	4,42
227,409	4,69
227,673	2,83
227,936	0,96
228,199	1,99
228,462	0,65
228,725	-0,34
228,989	1,35
229,252	1,79
229,515	6,99
229,778	5,27
230,041	4,8
230,304	4,41
230,567	4,75
230,83	2,3
231,093	4,33
231,356	4,28
231,619	9,63
231,882	8,71
232,145	10,25
232,408	8,71
232,671	7,67
232,934	7,4
233,197	6,54
233,46	4,79
233,723	5,59
233,986	3,17
234,249	1,96
234,512	3,95
234,775	7,25
235,037	6,64
235,3	6,95
235,563	6,69
235,826	6,34
236,089	8,83
236,351	8,19
236,614	10,74
236,877	11,35
237,14	12,61
237,402	11,99
237,665	6,57
237,928	6,61
238,19	4,49
238,453	6,56
238,716	5,66
238,978	6,99
239,241	5,22
239,503	6,13
239,766	1,72
240,029	0,05
240,291	1,6
240,554	1,98
240,816	1,22
241,079	1,82
241,341	0,86
241,604	1,26
241,866	-0,07
242,129	1,28
242,391	2,82
242,653	1,73
242,916	1,43
243,178	0,71
243,441	0
243,703	-1,49
243,965	-1,03
244,228	-1,32
244,49	-0,59
244,752	-0,46
245,015	1,1
245,277	1,9
245,539	1,79
245,801	3,27
246,064	3,47
246,326	4,99
246,588	5,23
246,85	7,36
247,112	8,25
247,374	9,95
247,637	11,73
247,899	10,99
248,161	11,22
248,423	8,45
248,685	9,36
248,947	8,96
249,209	8,66
249,471	10,27
249,733	10,12
249,995	9,22
250,257	8,65
250,519	8,98
250,781	12,56
251,043	9,32
251,305	9,83
251,567	12,4
251,829	14,47
252,091	12,71
252,353	9,74
252,615	9,11
252,876	7,97
253,138	6,8
253,4	3,25
253,662	3,94
253,924	5,65
254,185	6,5
254,447	5,3
254,709	4,8
254,971	4,64
255,232	4,72
255,494	3,8
255,756	2,54
256,017	3,08
256,279	3,98
256,541	3
256,802	3,62
257,064	3,72
257,326	3,6
257,587	4,54
257,849	6,16
258,11	9,79
258,372	9,39
258,633	9,11
258,895	7,29
259,156	6,63
259,418	7,06
259,679	3,87
259,941	1,57
260,202	3,6
260,464	6,28
260,725	5,57
260,987	4,49
261,248	3,73
261,509	4,32
261,771	1,82
262,032	3,76
262,293	2,75
262,555	2,72
262,816	1,91
263,077	1,28
263,338	-1,1
263,6	-0,44
263,861	-1,66
264,122	-1,3
264,383	0,28
264,645	1,69
264,906	0,57
265,167	1,42
265,428	0,25
265,689	0,1
265,95	-1,76
266,211	-2,77
266,473	-1,96
266,734	-4,58
266,995	-6,71
267,256	-4,68
267,517	-3,3
267,778	-1,33
268,039	0,08
268,3	-0,64
268,561	-2,59
268,822	0,14
269,083	-1,91
269,344	-2,67
269,604	-2,19
269,865	-0,02
270,126	-3,62
270,387	-3,35
270,648	-3,11
270,909	-4,09
271,17	-5,19
271,43	-7,34
271,691	-9,11
271,952	-9,24
272,213	-8,78
272,473	-10,17
272,734	-9,77
272,995	-8,32
273,256	-7,55
273,516	-4,45
273,777	-6,89
274,038	-5,03
274,298	-7,57
274,559	-7,68
274,82	-4,86
275,08	-2,61
275,341	-2,56
275,601	-3,25
275,862	-5,66
276,122	-5,84
276,383	-5,76
276,643	-4,3
276,904	-5,96
277,164	-1,81
277,425	-2,27
277,685	0,68
277,946	0,22
278,206	1,18
278,467	3,41
278,727	4,7
278,987	5,14
279,248	5,26
279,508	7,85
279,768	9,98
280,029	10,77
280,289	9,37
280,549	8,48
280,81	8,1
281,07	7,48
281,33	8,07
281,59	6,26
281,851	8,8
282,111	6,61
282,371	6,16
282,631	7,37
282,891	6,73
283,151	4,92
283,412	3,9
283,672	3,84
283,932	5,85
284,192	6,67
284,452	5,39
284,712	4,21
284,972	3,51
285,232	1,21
285,492	3,53
285,752	1,44
286,012	6,04
286,272	6,78
286,532	4,14
286,792	4,33
287,052	6,34
287,312	6,26
287,571	3,9
287,831	3,88
288,091	2,18
288,351	2
288,611	5,06
288,871	4,31
289,13	2,87
289,39	-0,43
289,65	0,75
289,91	-0,7
290,17	1,73
290,429	4,67
290,689	1,98
290,949	0,06
291,208	0,27
291,468	2,98
291,728	3,04
291,987	4,02
292,247	2,84
292,506	5,31
292,766	7,37
293,026	6,42
293,285	8,19
293,545	9,2
293,804	8,8
294,064	6,4
294,323	4,89
294,583	6,4
294,842	5,17
295,102	5,01
295,361	5,33
295,621	5,82
295,88	5,62
296,139	5,67
296,399	6,48
296,658	3,4
296,917	4,99
297,177	4,32
297,436	6,16
297,695	3,9
297,955	5,18
298,214	3,64
298,473	3,94
298,732	6
298,992	7,84
299,251	7,63
299,51	3,77
299,769	3,78
300,028	2,59
300,287	2,42
300,547	2,95
300,806	1,39
301,065	3,97
301,324	4,65
301,583	2,67
301,842	-0,45
302,101	-2,02
302,36	-2,07
302,619	-2,74
302,878	-2
303,137	-3,14
303,396	-1,88
303,655	1,77
303,914	-0,25
304,173	0,67
304,432	-0,99
304,691	0,37
304,95	-1,76
305,208	3
305,467	3,41
305,726	3,11
305,985	3,59
306,244	5,92
306,503	5,82
306,761	3,43
307,02	1,63
307,279	1,82
307,537	2,77
307,796	1,52
308,055	0,71
308,314	1,95
308,572	-0,88
308,831	-0,58
309,09	-0,23
309,348	-0,3
309,607	-2,35
309,865	2,34
310,124	1,68
310,382	4,09
310,641	4,52
310,9	3,52
311,158	3,64
311,417	3,9
311,675	2,58
311,933	3,55
312,192	3,79
312,45	4,93
312,709	4,36
312,967	3,66
313,226	1,16
313,484	0,66
313,742	-0,13
314,001	-2,11
314,259	-4,14
314,517	-2,85
314,776	0,57
315,034	3,7
315,292	2,98
315,55	1,32
315,809	0,46
316,067	-0,42
316,325	-2,69
316,583	-0,24
316,841	-0,33
317,1	-1,29
317,358	-4,06
317,616	-3,48
317,874	-5,14
318,132	-6,54
318,39	-7,84
318,648	-7,9
318,906	-8,28
319,164	-7,95
319,422	-9,58
319,68	-11,66
319,938	-11,92
320,196	-11,38
320,454	-10,49
320,712	-10,53
320,97	-9,42
321,228	-10,03
321,486	-8,82
321,744	-7,08
322,002	-5,31
322,26	-6,58
322,517	-8,28
322,775	-9,96
323,033	-13,35
323,291	-11,08
323,549	-8,53
323,806	-7,12
324,064	-5,44
324,322	-2,53
324,58	-5,32
324,837	-3,48
325,095	-5,55
325,353	-4,63
325,61	-2,39
325,868	-2,18
326,126	1,02
326,383	0,6
326,641	-0,85
326,898	1,09
327,156	0,4
327,413	1,85
327,671	3,96
327,928	6,31
328,186	6,27
328,443	4,95
328,701	7,31
328,958	7,05
329,216	6,43
329,473	4,49
329,731	4,8
329,988	3,92
330,245	6,35
330,503	7,77
330,76	7,86
331,017	9,54
331,275	6,69
331,532	6,65
331,789	4,7
332,047	3,55
332,304	1,02
332,561	1,86
332,818	0,14
333,076	1,92
333,333	3,71
333,59	3,52
333,847	4,29
334,104	2,48
334,361	1,06
334,618	0,67
334,876	-1,12
335,133	-1,48
335,39	-2,52
335,647	-2,69
335,904	-6,72
336,161	-8,22
336,418	-7,93
336,675	-11
336,932	-9,3
337,189	-8,41
337,446	-7,1
337,703	-8,34
337,96	-10,88
338,216	-10,58
338,473	-13,12
338,73	-13,37
338,987	-12,26
339,244	-8,5
339,501	-9,99
339,757	-8,38
340,014	-7,25
340,271	-5
340,528	-4,82
340,785	-1,12
341,041	-1,49
341,298	-3,77
341,555	-4,54
341,811	-6,24
342,068	-8,27
342,325	-7,78
342,581	-5,46
342,838	-3,17
343,094	-3,35
343,351	-4,29
343,608	-6,44
343,864	-3,81
344,121	-3,5
344,377	-3,85
344,634	-3,09
344,89	-4,2
345,147	-5,89
345,403	-7,21
345,66	-7,1
345,916	-4,83
346,172	-7,25
346,429	-7,47
346,685	-9,1
346,942	-9,29
347,198	-12,76
347,454	-11,47
347,711	-11,56
347,967	-13,38
348,223	-13,86
348,48	-13,68
348,736	-12,76
348,992	-11,88
349,248	-10,06
349,504	-9,83
349,761	-9,05
350,017	-7,75
350,273	-7,08
350,529	-8,03
350,785	-8,56
351,041	-8,64
351,297	-7,64
351,554	-7,22
351,81	-8,78
352,066	-8,73
352,322	-8,68
352,578	-8,58
352,834	-8,01
353,09	-7,19
353,346	-7,39
353,602	-7,61
353,858	-8,97
354,114	-9,27
354,369	-8,09
354,625	-5,83
354,881	-7,74
355,137	-5,8
355,393	-6,04
355,649	-6,2
355,905	-5,74
356,16	-6,81
356,416	-6,77
356,672	-10,61
356,928	-11,26
357,183	-12,32
357,439	-12,63
357,695	-13,04
357,951	-9,4
358,206	-9,98
358,462	-10,34
358,718	-12,59
358,973	-12,3
359,229	-11,48
359,484	-11,73
359,74	-9,03
359,996	-9,12
360,251	-6,7
360,507	-6,93
360,762	-7,17
361,018	-5,24
361,273	-4,16
361,529	-3,87
361,784	-3,03
362,04	-0,86
362,295	-2,27
362,55	-2,34
362,806	0,51
363,061	1,31
363,316	2,2
363,572	3,17
363,827	4,62
364,082	1,91
364,338	2,56
364,593	1,73
364,848	2,66
365,104	1,31
365,359	3,34
365,614	3,43
365,869	-0,08
366,124	1,26
366,38	0,45
366,635	1,6
366,89	2,39
367,145	1,13
367,4	4,06
367,655	3,87
367,91	5,04
368,165	3,95
368,42	1,82
368,675	1,53
368,93	1,66
369,185	-0,64
369,44	-0,25
369,695	-0,6
369,95	-1,9
370,205	-1,44
370,46	-1,88
370,715	-2,17
370,97	-2,35
371,225	-3,26
371,48	-2,68
371,734	-2,78
371,989	-0,67
372,244	-2,15
372,499	-0,38
372,754	-1,76
373,008	-2,56
373,263	-4,97
373,518	-3,88
373,773	-3,71
374,027	-6,41
374,282	-4,14
374,537	-2,58
374,791	-0,99
375,046	-1,46
375,301	-3,33
375,555	-4,72
375,81	-4,69
376,064	-4,08
376,319	-1,45
376,573	-2,02
376,828	-4,89
377,082	-1,16
377,337	-3,08
377,591	-3,2
377,846	-2,02
378,1	-0,56
378,355	-0,53
378,609	-2,15
378,863	-4,33
379,118	-2,32
379,372	-3,98
379,627	-6,83
379,881	-8,07
380,135	-6,83
380,389	-7,68
380,644	-7
380,898	-6,09
381,152	-7,57
381,407	-8,62
381,661	-6,96
381,915	-3,81
382,169	-3,55
382,423	-5,37
382,677	-9,08
382,932	-7,16
383,186	-6,48
383,44	-4,5
383,694	-1,83
383,948	-3,96
384,202	-4,29
384,456	-2,36
384,71	0,2
384,964	-1,29
385,218	1,01
385,472	1,79
385,726	1,65
385,98	2,21
386,234	1,97
386,488	0,25
386,742	1,02
386,996	-1,44
387,249	-0,19
387,503	1,97
387,757	2,67
388,011	4,01
388,265	4,46
388,518	4,72
388,772	5,95
389,026	8,52
389,28	7,71
389,533	5,62
389,787	6,55
390,041	4,2
390,295	4,69
390,548	6,53
390,802	7,29
391,055	6,81
391,309	4,87
391,563	1,4
391,816	1,74
392,07	0,63
392,323	0,58
392,577	-0,06
392,83	0,65
393,084	4,73
393,337	7,25
393,591	8
393,844	8,55
394,098	10,87
394,351	14,53
394,604	16,46
394,858	17,83
395,111	18,75
395,364	17,9
395,618	20,19
395,871	18,75
396,124	17,58
396,378	16,71
396,631	18,06
396,884	15,83
397,137	16,27
397,391	17,81
397,644	15,21
397,897	16,12
398,15	16,64
398,403	19,25
398,657	18
398,91	17,4
399,163	18,67
399,416	19,3
399,669	18,83
399,922	18,84
400,175	20,24
400,428	23,09
400,681	28,68
400,934	29,68
401,187	34,31
401,44	37,9
401,693	39,28
401,946	39,79
402,199	36,72
402,452	36,76
402,704	34,59
402,957	33,6
403,21	35,65
403,463	35,27
403,716	35,4
403,969	37,62
404,221	38,36
404,474	38,98
404,727	41,97
404,98	44,52
405,232	45,42
405,485	47,46
405,738	48,85
405,99	48,57
406,243	47,39
406,496	49,24
406,748	48,78
407,001	47,46
407,253	47,46
407,506	48,08
407,759	47,78
408,011	44,86
408,264	42,14
408,516	37,08
408,769	30,8
409,021	25,66
409,274	21,76
409,526	20,5
409,778	17,59
410,031	19,51
410,283	18,62
410,536	22,78
410,788	20,6
411,04	20,25
411,293	21,02
411,545	22,1
411,797	21,46
412,049	21,24
412,302	19,96
412,554	20,88
412,806	19,02
413,058	18,01
413,311	17,74
413,563	17,11
413,815	16,71
414,067	16
414,319	14,74
414,571	16,59
414,823	14,39
415,075	12,97
415,328	14,09
415,58	16,42
415,832	16,84
416,084	17
416,336	15,74
416,588	18,78
416,84	17,91
417,091	20,03
417,343	16,6
417,595	18
417,847	19,88
418,099	20,32
418,351	19,57
418,603	22,24
418,855	23,66
419,106	22,98
419,358	22,78
419,61	21,54
419,862	22,28
420,114	22,19
420,365	22,43
420,617	22,55
420,869	21,4
421,12	20,4
421,372	21,07
421,624	20,51
421,875	21,05
422,127	18,53
422,379	18,88
422,63	21,22
422,882	21,83
423,133	22,11
423,385	22,57
423,636	24,11
423,888	26,28
424,139	27,94
424,391	26,58
424,642	24,84
424,894	24,22
425,145	25,29
425,396	23,53
425,648	24,62
425,899	24,17
426,151	25,44
426,402	24,76
426,653	24,9
426,905	24,04
427,156	22,54
427,407	23,07
427,658	22,7
427,91	21,63
428,161	20,08
428,412	23,07
428,663	23,89
428,914	25,73
429,166	27,09
429,417	28,77
429,668	28,81
429,919	28,13
430,17	27,81
430,421	29,35
430,672	31,93
430,923	32,44
431,174	34,82
431,425	44,14
431,676	58,41
431,927	76,42
432,178	101,55
432,429	128,93
432,68	148,4
432,931	165,98
433,182	178,71
433,433	183,5
433,683	189,47
433,934	191,07
434,185	193,04
434,436	192,47
434,687	195,52
434,937	197,71
435,188	196,53
435,439	195,6
435,69	196,27
435,94	196,83
436,191	195,69
436,442	195,32
436,692	195,05
436,943	192,99
437,194	192,27
437,444	193,53
437,695	196,98
437,945	197,61
438,196	196,49
438,447	195,25
438,697	194,06
438,948	189,49
439,198	178,07
439,449	160,26
439,699	140,58
439,949	116,75
440,2	90,11
440,45	70,75
440,701	54,5
440,951	43,3
441,201	36,67
441,452	30,66
441,702	27,38
441,952	26,14
442,203	26,06
442,453	23,41
442,703	24,24
442,953	25,93
443,204	27,21
443,454	26,27
443,704	26,47
443,954	23,03
444,204	23,84
444,455	24,98
444,705	25,92
444,955	25,89
445,205	25,24
445,455	23,48
445,705	23,85
445,955	23,01
446,205	22,36
446,455	23,05
446,705	24,6
446,955	25,88
447,205	27,14
447,455	29,38
447,705	26,92
447,955	26,24
448,205	26,25
448,454	24,97
448,704	27
448,954	25,8
449,204	27,21
449,454	27,16
449,704	25,76
449,953	24,72
450,203	25,82
450,453	23,98
450,703	25,36
450,952	25,32
451,202	26,82
451,452	26,35
451,701	29,86
451,951	32,44
452,201	31,88
452,45	30,29
452,7	30,57
452,949	28,46
453,199	28,6
453,448	29,67
453,698	32,26
453,947	31,64
454,197	30,43
454,446	28,83
454,696	29,83
454,945	29,53
455,195	27,55
455,444	28,99
455,693	32,74
455,943	30,73
456,192	32,59
456,442	31
456,691	31,56
456,94	30,39
457,189	30,18
457,439	31,51
457,688	32,89
457,937	32,45
458,186	32,87
458,436	32,3
458,685	32,62
458,934	32,63
459,183	31,39
459,432	32,81
459,681	33,16
459,93	31,4
460,179	32,52
460,429	32,48
460,678	35,86
460,927	37,13
461,176	35,48
461,425	33,57
461,674	35,57
461,923	36,41
462,172	36,81
462,42	36,18
462,669	37,55
462,918	37,47
463,167	36,15
463,416	33,25
463,665	34,28
463,914	34,69
464,162	33,57
464,411	33,73
464,66	33,98
464,909	31,67
465,158	31,56
465,406	30,67
465,655	32,38
465,904	33,38
466,152	32,07
466,401	32
466,65	32,57
466,898	32,22
467,147	29,31
467,395	28,4
467,644	30,07
467,893	29,21
468,141	28,37
468,39	27,28
468,638	25,65
468,887	25,73
469,135	26,23
469,384	26,15
469,632	26,84
469,88	25,56
470,129	27,03
470,377	24,53
470,626	26,63
470,874	29,33
471,122	31,26
471,371	28,8
471,619	27,55
471,867	29,55
472,115	28,66
472,364	27,61
472,612	31,73
472,86	31,29
473,108	32,63
473,356	31,98
473,605	30,33
473,853	29,14
474,101	28,61
474,349	28,03
474,597	30,11
474,845	28,97
475,093	27,59
475,341	26,35
475,589	26,36
475,837	26,77
476,085	26,74
476,333	25,99
476,581	26,8
476,829	25,99
477,077	28,3
477,325	28,03
477,573	31,25
477,821	28,23
478,069	29,8
478,317	30,3
478,564	31,27
478,812	29,74
479,06	31,32
479,308	31,81
479,555	32,98
479,803	34,46
480,051	37,23
480,299	37,67
480,546	39,91
480,794	40,28
481,042	43,06
481,289	46,19
481,537	51,57
481,784	53,64
482,032	60
482,28	64,06
482,527	68,88
482,775	73,36
483,022	78,38
483,27	84,68
483,517	93,42
483,765	98,84
484,012	104,56
484,259	106,9
484,507	113,39
484,754	116,71
485,002	121,39
485,249	123,46
485,496	129,65
485,744	133,78
485,991	136,21
486,238	137,74
486,486	143,18
486,733	146,6
486,98	150,03
487,227	151,47
487,474	155,56
487,722	159,01
487,969	158,82
488,216	159,54
488,463	159,59
488,71	159,15
488,957	157,49
489,204	156,01
489,451	156,99
489,699	153,21
489,946	149,33
490,193	146,57
490,44	144,04
490,687	141,02
490,934	136,36
491,18	129,88
491,427	127,3
491,674	125,38
491,921	122,93
492,168	118,08
492,415	114
492,662	110,97
492,909	110,68
493,155	107,71
493,402	102,42
493,649	99,5
493,896	97,41
494,142	91,21
494,389	88,91
494,636	86,01
494,883	80,37
495,129	75,08
495,376	70,41
495,623	69,03
495,869	67,3
496,116	65,85
496,362	64,33
496,609	65,47
496,855	66,97
497,102	64,16
497,348	61,08
497,595	60,34
497,841	60,93
498,088	58,62
498,334	56,32
498,581	53,43
498,827	51,55
499,074	50,51
499,32	50,75
499,566	51,49
499,813	50,78
500,059	46,54
500,305	44,72
500,552	41,98
500,798	40
501,044	41,8
501,29	38,94
501,537	36,31
501,783	37,46
502,029	37,29
502,275	34,07
502,521	32,91
502,767	33,56
503,013	35,37
503,26	32,43
503,506	29,7
503,752	29,72
503,998	25,7
504,244	25,11
504,49	22,38
504,736	22,1
504,982	20,92
505,228	21,88
505,474	22,15
505,72	20,88
505,966	19,46
506,211	21,7
506,457	21,45
506,703	18,38
506,949	15,05
507,195	13,97
507,441	11,07
507,686	14,44
507,932	14,57
508,178	15,3
508,424	13,27
508,669	10,99
508,915	10,58
509,161	11,49
509,406	10,76
509,652	9,78
509,898	11,15
510,143	12,99
510,389	11
510,634	7,02
510,88	10,35
511,125	12,45
511,371	12,42
511,616	15,91
511,862	12,91
512,107	10,34
512,353	10,59
512,598	11,64
512,844	8,62
513,089	5,43
513,335	7,37
513,58	8,35
513,825	8,2
514,071	5,92
514,316	4,4
514,561	5,88
514,806	4,14
515,052	5,62
515,297	3,73
515,542	4,49
515,787	4,5
516,033	6,08
516,278	7,05
516,523	7,29
516,768	6,61
517,013	6,12
517,258	5,4
517,503	5,7
517,748	5,64
517,993	5,45
518,238	5,54
518,483	3,37
518,728	2,08
518,973	0,7
519,218	-0,19
519,463	0,63
519,708	0,69
519,953	-0,26
520,198	-1,25
520,443	0,36
520,688	3,24
520,933	1,64
521,177	0,35
521,422	-1,19
521,667	2,54
521,912	4,82
522,157	1,85
522,401	3,98
522,646	4,52
522,891	5,14
523,135	3,79
523,38	3,56
523,625	2,31
523,869	3,94
524,114	4,91
524,358	4,26
524,603	4,36
524,848	3,64
525,092	2,12
525,337	2,63
525,581	3,77
525,826	5,28
526,07	5,96
526,315	6,5
526,559	6,19
526,803	4,18
527,048	6,21
527,292	6,51
527,537	5,82
527,781	5,59
528,025	4,36
528,269	5,53
528,514	6,64
528,758	6,74
529,002	7,29
529,247	9,02
529,491	6,35
529,735	10,98
529,979	10,38
530,223	11,65
530,467	10,42
530,712	9,58
530,956	9,52
531,2	11,07
531,444	9,38
531,688	10,53
531,932	9,46
532,176	10,3
532,42	10,74
532,664	13,19
532,908	11,98
533,152	12,12
533,396	13,15
533,64	12,89
533,884	13,93
534,128	15,26
534,371	18,77
534,615	22
534,859	24,09
535,103	26,86
535,347	30,39
535,59	34,48
535,834	33,98
536,078	39,67
536,322	45,09
536,565	52,01
536,809	57,59
537,053	67,07
537,296	74,36
537,54	85,39
537,784	98,93
538,027	114,41
538,271	130,96
538,514	147,34
538,758	163,74
539,001	180,04
539,245	195,88
539,488	214,03
539,732	230,07
539,975	245,76
540,219	260,82
540,462	275,36
540,706	289,11
540,949	300,51
541,192	313,13
541,436	328,23
541,679	344,84
541,922	360,68
542,166	374,73
542,409	393,82
542,652	414,91
542,895	436,14
543,139	454,18
543,382	473,17
543,625	484,78
543,868	495,48
544,111	502,95
544,354	507,05
544,598	511
544,841	512,33
545,084	510,1
545,327	503,55
545,57	497,98
545,813	489,2
546,056	478,43
546,299	467,92
546,542	457,3
546,785	448,41
547,028	437,21
547,271	425,16
547,514	414,6
547,756	403,23
547,999	392,76
548,242	383,32
548,485	372,89
548,728	363,2
548,971	348,9
549,213	337,1
549,456	322,21
549,699	305,52
549,942	285,73
550,184	263,75
550,427	242,32
550,67	223,92
550,912	204,07
551,155	189,14
551,398	174,9
551,64	162,6
551,883	151,15
552,125	139,36
552,368	129,48
552,61	118,86
552,853	112,28
553,095	103,65
553,338	97,76
553,58	91,68
553,823	83,89
554,065	80,85
554,308	72,14
554,55	65,86
554,792	59,87
555,035	54,13
555,277	49,4
555,519	45,72
555,762	40,37
556,004	37,19
556,246	31,72
556,488	30,32
556,731	25,38
556,973	22,62
557,215	19,33
557,457	18,3
557,699	18,88
557,941	15,18
558,183	11,89
558,426	11,73
558,668	7,19
558,91	6,62
559,152	4,2
559,394	2,94
559,636	3,16
559,878	1,46
560,12	0,15
560,362	-0,95
560,604	-1,35
560,845	-2,74
561,087	-4,5
561,329	-1,96
561,571	-5,84
