Data from led_USB4H112691__3__11-27-39-546.txt Node

Date: Tue Dec 17 11:27:39 CET 2024
User: Etudiants TP
Spectrometer: USB4H11269
Trigger mode: 4
Integration Time (sec): 1.000000E0
Scans to average: 1
Electric dark correction enabled: true
Nonlinearity correction enabled: false
Boxcar width: 0
XAxis mode: Wavelengths
Number of Pixels in Spectrum: 3648
>>>>>Begin Spectral Data<<<<<
286.377	-1646.23
286.631	-1646.23
286.884	-1646.23
287.138	-1621.65
287.391	-1584.79
287.644	-896.67
287.896	-626.34
288.149	749.9
288.401	450.89
288.653	-470.69
288.905	-466.6
289.157	846.15
289.409	291.15
289.661	-349.86
289.912	-708.26
290.163	446.8
290.414	733.51
290.665	-702.11
290.916	-554.66
291.166	561.48
291.417	1038.66
291.667	-519.84
291.917	-233.13
292.167	471.37
292.417	323.92
292.666	-804.51
292.916	-591.52
293.165	510.29
293.414	661.84
293.663	-886.43
293.912	-773.79
294.16	758.09
294.408	655.69
294.657	-667.3
294.905	-356.01
295.153	555.34
295.4	635.21
295.648	-734.88
295.895	-732.83
296.143	201.04
296.39	758.09
296.637	-640.67
296.884	-724.64
297.13	655.69
297.377	831.82
297.623	-485.03
297.869	-315.05
298.115	782.67
298.361	594.25
298.606	-712.35
298.852	-528.03
299.097	577.87
299.342	897.35
299.587	-331.43
299.832	-544.42
300.077	651.6
300.322	659.79
300.566	-618.15
300.81	-433.83
301.054	500.05
301.298	825.67
301.542	-255.65
301.785	-259.75
302.029	983.37
302.272	696.65
302.515	-765.6
302.758	-546.47
303.001	692.55
303.244	747.85
303.486	-417.44
303.729	-818.85
303.971	973.13
304.213	766.28
304.455	-781.98
304.696	-241.32
304.938	260.43
305.179	760.14
305.421	-401.06
305.662	-409.25
305.903	350.54
306.143	291.15
306.384	-378.53
306.625	-474.79
306.865	409.94
307.105	250.19
307.345	-534.18
307.585	-464.55
307.825	-5.8
308.064	727.37
308.304	-593.57
308.543	-765.6
308.782	528.72
309.021	813.38
309.26	-308.9
309.499	-507.55
309.737	930.12
309.976	782.67
310.214	-691.87
310.452	-642.72
310.69	1034.57
310.928	158.03
311.165	-523.94
311.403	-573.09
311.64	797
311.878	653.64
312.115	-515.75
312.351	-472.74
312.588	360.78
312.825	964.93
313.061	-724.64
313.298	4.44
313.534	242
313.77	807.24
314.006	-556.71
314.241	-513.7
314.477	647.5
314.713	1141.06
314.948	-511.65
315.183	188.75
315.418	948.55
315.653	481.61
315.888	-640.67
316.122	-421.54
316.357	221.52
316.591	842.06
316.825	-532.13
317.059	-548.51
317.293	954.69
317.527	438.61
317.76	-679.58
317.994	-474.79
318.227	725.32
318.46	1077.57
318.693	-673.44
318.926	-417.44
319.159	115.03
319.391	510.29
319.624	-675.49
319.856	-450.21
320.088	753.99
320.321	655.69
320.552	-249.51
320.784	-687.78
321.016	737.61
321.247	-79.53
321.479	-317.09
321.71	-300.71
321.941	-106.15
322.172	1083.72
322.403	-626.34
322.633	-386.72
322.864	860.49
323.094	184.66
323.325	-97.96
323.555	-677.54
323.785	153.94
324.014	278.87
324.244	-456.36
324.474	-274.09
324.703	895.3
324.933	848.2
325.162	-294.57
325.391	-710.3
325.62	-5.8
325.848	713.03
326.077	-437.92
326.306	-323.24
326.534	717.13
326.762	934.22
326.99	-587.43
327.218	-315.05
327.446	715.08
327.674	-3.75
327.901	-499.36
328.129	-548.51
328.356	751.95
328.583	121.17
328.81	-642.72
329.037	-507.55
329.264	422.22
329.491	868.68
329.717	-425.64
329.944	-612
330.17	325.97
330.396	184.66
330.622	-630.43
330.848	-255.65
331.074	489.81
331.299	1433.92
331.525	-601.76
331.75	-568.99
331.975	854.34
332.201	123.22
332.426	-829.09
332.65	-575.14
332.875	-147.11
333.1	422.22
333.324	-712.35
333.549	-558.75
333.773	373.07
333.997	504.14
334.221	-618.15
334.445	-568.99
334.668	467.28
334.892	1085.76
335.116	-327.33
335.339	-478.88
335.562	-52.91
335.785	477.52
336.008	-269.99
336.231	-605.86
336.454	-118.44
336.676	844.1
336.899	-458.4
337.121	-179.88
337.343	-13.99
337.566	538.96
337.788	-601.76
338.009	-691.87
338.231	147.8
338.453	422.22
338.674	3217.7
338.896	-517.79
339.117	0.34
339.338	1065.29
339.559	-679.58
339.78	-585.38
340.001	110.93
340.222	878.92
340.442	-577.19
340.663	-263.85
340.883	667.98
341.103	266.58
341.323	-503.46
341.543	-450.21
341.763	823.62
341.983	258.39
342.202	-581.28
342.422	-556.71
342.641	1096
342.861	387.41
343.08	-251.56
343.299	-650.91
343.518	620.88
343.736	708.94
343.955	-507.55
344.174	-636.58
344.392	735.56
344.61	119.12
344.829	-681.63
345.047	-564.9
345.265	549.2
345.483	905.54
345.7	-601.76
345.918	-214.7
346.136	86.36
346.353	835.91
346.57	-640.67
346.788	-634.53
347.005	364.88
347.222	-52.91
347.438	6.49
347.655	-546.47
347.872	65.88
348.088	1046.85
348.305	-413.35
348.521	-558.75
348.737	102.74
348.953	993.61
349.169	-220.84
349.385	-460.45
349.601	422.22
349.817	-91.82
350.032	-114.34
350.248	-356.01
350.463	1206.59
350.678	-294.57
350.893	-657.06
351.108	-675.49
351.323	115.03
351.538	809.29
351.753	-607.91
351.967	-597.67
352.182	731.47
352.396	266.58
352.61	-716.45
352.824	-566.95
353.038	557.39
353.252	817.48
353.466	-333.48
353.68	-548.51
353.894	373.07
354.107	160.08
354.32	-368.29
354.534	-624.29
354.747	704.84
354.96	0.34
355.173	-337.57
355.386	-777.89
355.599	471.37
355.811	266.58
356.024	-679.58
356.236	-413.35
356.449	291.15
356.661	332.11
356.873	-730.78
357.085	-829.09
357.297	553.29
357.509	571.72
357.721	-544.42
357.933	-560.8
358.144	270.67
358.356	211.28
358.567	-386.72
358.778	-675.49
358.989	850.25
359.2	102.74
359.411	-401.06
359.622	-278.18
359.833	414.03
360.044	356.69
360.254	-519.84
360.465	-622.24
360.675	424.27
360.885	264.53
361.096	-667.3
361.306	-446.12
361.516	215.38
361.726	459.09
361.935	-777.89
362.145	-517.79
362.355	516.43
362.564	457.04
362.774	-712.35
362.983	-753.31
363.192	786.76
363.401	147.8
363.61	-601.76
363.819	-267.94
364.028	467.28
364.237	926.02
364.445	-581.28
364.654	-329.38
364.862	436.56
365.071	143.7
365.279	-482.98
365.487	-618.15
365.695	573.77
365.903	364.88
366.111	-577.19
366.319	-552.61
366.527	586.06
366.734	235.86
366.942	-415.4
367.149	-728.74
367.357	-583.33
367.564	1012.04
367.771	-458.4
367.978	-554.66
368.185	72.02
368.392	180.56
368.599	-304.81
368.806	-552.61
369.013	12.63
369.219	504.14
369.426	-712.35
369.632	-255.65
369.838	1210.69
370.044	557.39
370.251	-468.64
370.457	-497.32
370.663	905.54
370.868	364.88
371.074	-540.32
371.28	-609.95
371.485	-198.31
371.691	581.96
371.896	-632.48
372.102	-683.68
372.307	1061.19
372.512	911.69
372.717	-605.86
372.922	-220.84
373.127	72.02
373.332	364.88
373.537	-503.46
373.741	-460.45
373.946	454.99
374.151	219.47
374.355	-667.3
374.559	-456.36
374.764	201.04
374.968	-360.1
375.172	-642.72
375.376	-272.04
375.58	436.56
375.784	33.11
375.987	-642.72
376.191	-507.55
376.395	162.13
376.598	215.38
376.802	-636.58
377.005	-265.89
377.208	293.2
377.412	29.01
377.615	-794.27
377.818	-550.56
378.021	141.65
378.224	-89.77
378.426	-558.75
378.629	-804.51
378.832	751.95
379.034	577.87
379.237	-853.66
379.439	-827.04
379.642	684.36
379.844	561.48
380.046	-843.42
380.248	-712.35
380.45	-153.26
380.652	-216.74
380.854	-614.05
381.056	-605.86
381.258	217.43
381.459	444.75
381.661	-794.27
381.862	-356.01
382.064	-108.2
382.265	151.89
382.467	-663.2
382.668	-429.73
382.869	694.6
383.07	340.3
383.271	-446.12
383.472	-736.93
383.673	610.64
383.874	430.41
384.074	-356.01
384.275	-691.87
384.476	500.05
384.676	1014.09
384.876	-749.22
385.077	-626.34
385.277	686.41
385.477	852.3
385.677	-671.39
385.878	-427.68
386.078	305.49
386.278	409.94
386.477	-294.57
386.677	-159.4
386.877	543.05
387.077	647.5
387.276	-269.99
387.476	-478.88
387.675	328.02
387.875	903.5
388.074	-640.67
388.273	-501.41
388.472	786.76
388.671	-179.88
388.87	-634.53
389.069	-132.78
389.268	-151.21
389.467	53.59
389.666	-685.73
389.865	-216.74
390.063	569.68
390.262	751.95
390.461	-585.38
390.659	-638.62
390.857	764.23
391.056	653.64
391.254	-605.86
391.452	-507.55
391.65	835.91
391.849	536.91
392.047	-437.92
392.245	-192.17
392.442	254.29
392.64	493.9
392.838	-298.66
393.036	-442.02
393.233	350.54
393.431	289.1
393.629	-796.32
393.826	-482.98
394.023	246.1
394.221	-204.46
394.418	-456.36
394.615	-249.51
394.812	-89.77
395.01	776.52
395.207	-568.99
395.404	-700.06
395.601	889.16
395.797	502.09
395.994	-640.67
396.191	-458.4
396.388	162.13
396.584	639.31
396.781	-292.52
396.977	18.77
397.174	610.64
397.37	-128.68
397.567	-396.96
397.763	-599.71
397.959	295.25
398.155	317.78
398.352	-419.49
398.548	-265.89
398.744	504.14
398.94	440.65
399.136	-652.96
399.331	-269.99
399.527	358.74
399.723	463.18
399.919	-380.58
400.114	-417.44
400.31	205.14
400.505	575.82
400.701	-417.44
400.896	-507.55
401.092	162.13
401.287	366.93
401.482	-607.91
401.678	-419.49
401.873	645.45
402.068	690.51
402.263	-339.62
402.458	-462.5
402.653	182.61
402.848	516.43
403.043	-437.92
403.237	-618.15
403.432	82.26
403.627	-216.74
403.822	-806.56
404.016	-519.84
404.211	139.6
404.405	618.83
404.6	-177.83
404.794	-196.26
404.989	418.13
405.183	239.95
405.377	-216.74
405.571	-57
405.766	553.29
405.96	287.06
406.154	-450.21
406.348	-417.44
406.542	528.72
406.736	547.15
406.93	-575.14
407.124	-315.05
407.318	325.97
407.511	391.5
407.705	-319.14
407.899	-536.23
408.092	483.66
408.286	360.78
408.48	-609.95
408.673	-401.06
408.867	147.8
409.06	495.95
409.253	-394.92
409.447	-356.01
409.64	708.94
409.833	569.68
410.026	-208.55
410.22	-216.74
410.413	735.56
410.606	475.47
410.799	-638.62
410.992	-372.39
411.185	332.11
411.378	1012.04
411.571	-347.81
411.764	-272.04
411.956	749.9
412.149	526.67
412.342	-190.12
412.534	-241.32
412.727	708.94
412.92	457.04
413.112	-278.18
413.305	-65.19
413.497	897.35
413.69	766.28
413.882	-282.28
414.075	-26.28
414.267	618.83
414.459	403.79
414.652	-485.03
414.844	-235.18
415.036	598.35
415.228	969.03
415.42	29.01
415.612	-308.9
415.804	1044.81
415.997	713.03
416.188	-69.29
416.38	-26.28
416.572	471.37
416.764	786.76
416.956	-304.81
417.148	-288.42
417.34	463.18
417.531	178.51
417.723	-192.17
417.915	-116.39
418.107	358.74
418.298	747.85
418.49	-132.78
418.681	22.87
418.873	1083.72
419.064	676.17
419.256	-36.52
419.447	-102.06
419.639	856.39
419.83	1134.92
420.021	115.03
420.213	-108.2
420.404	723.27
420.595	776.52
420.786	295.25
420.978	164.18
421.169	1075.52
421.36	614.73
421.551	45.4
421.742	-24.23
421.933	1356.1
422.124	1085.76
422.315	143.7
422.506	145.75
422.697	1036.61
422.888	786.76
423.079	428.37
423.27	137.56
423.461	803.15
423.652	803.15
423.842	166.23
424.033	381.26
424.224	1192.26
424.415	1579.33
424.605	430.41
424.796	209.23
424.987	1288.51
425.177	1143.11
425.368	29.01
425.558	135.51
425.749	1085.76
425.939	860.49
426.13	713.03
426.32	610.64
426.511	899.4
426.701	1020.23
426.892	571.72
427.082	465.23
427.272	1077.57
427.463	1298.75
427.653	610.64
427.843	776.52
428.034	1915.19
428.224	1556.8
428.414	500.05
428.604	688.46
428.795	1544.51
428.985	1677.63
429.175	1009.99
429.365	913.74
429.555	1618.24
429.745	1632.57
429.935	880.97
430.126	1069.38
430.316	1859.9
430.506	1872.18
430.696	1114.44
430.886	1071.43
431.076	1958.2
431.266	1685.82
431.456	1239.36
431.645	1151.3
431.835	1800.51
432.025	1962.3
432.215	1028.42
432.405	1438.02
432.595	2054.45
432.785	1954.1
432.975	1308.99
433.164	1118.53
433.354	1995.06
433.544	2279.73
433.734	1182.02
433.923	1737.02
434.113	2146.61
434.303	2183.48
434.493	1790.27
434.682	1741.11
434.872	2599.21
435.062	2148.66
435.251	1800.51
435.441	1720.64
435.631	2963.75
435.82	2756.91
436.01	1818.94
436.2	1984.82
436.389	2650.41
436.579	3311.91
436.768	2437.42
436.958	2449.71
437.147	2945.32
437.337	3242.28
437.527	2433.33
437.716	2480.43
437.906	3535.14
438.095	3223.84
438.285	2619.69
438.474	2683.18
438.664	3741.98
438.853	3559.71
439.043	2930.98
439.232	2584.88
439.422	3854.62
439.611	3883.29
439.8	2857.26
439.99	3500.32
440.179	4161.81
440.369	4440.34
440.558	3152.17
440.748	3344.67
440.937	4077.85
441.126	4028.7
441.316	3850.52
441.505	3526.94
441.695	4577.55
441.884	5255.43
442.073	3979.54
442.263	3854.62
442.452	4634.89
442.642	5038.34
442.831	4075.8
443.02	4415.76
443.21	5660.93
443.399	5968.12
443.588	4616.46
443.778	4653.33
443.967	6017.27
444.156	5431.55
444.346	4497.68
444.535	4620.56
444.725	6355.19
444.914	5484.8
445.103	4839.69
445.293	5230.85
445.482	6295.8
445.671	6041.85
445.861	5234.95
446.05	5304.58
446.239	6334.71
446.429	5705.98
446.618	5191.94
446.807	5492.99
446.997	6428.92
447.186	6420.72
447.376	5640.45
447.565	5681.41
447.754	6574.32
447.944	6779.12
448.133	5542.14
448.322	5286.15
448.512	6189.3
448.701	6807.79
448.891	5468.42
449.08	5390.6
449.269	5779.71
449.459	5873.92
449.648	5427.46
449.838	5558.53
450.027	5873.92
450.217	5884.16
450.406	5179.65
450.595	5380.36
450.785	6174.97
450.974	6283.51
451.164	5343.49
451.353	5370.12
451.543	6119.67
451.732	6469.87
451.922	5001.48
452.111	5067.02
452.301	5425.41
452.49	5271.81
452.68	4632.85
452.869	5347.59
453.059	5388.55
453.249	5886.2
453.438	4464.91
453.628	4722.96
453.817	5492.99
454.007	5515.52
454.197	4346.13
454.386	4684.05
454.576	5712.13
454.765	5492.99
454.955	4690.19
455.145	4509.97
455.334	5179.65
455.524	4874.51
455.714	4518.16
455.904	4116.76
456.093	5671.17
456.283	5128.46
456.473	4176.15
456.663	4086.04
456.852	4765.96
457.042	5003.53
457.232	4114.71
457.422	4720.91
457.612	4948.23
457.802	5388.55
457.991	3868.95
458.181	3746.08
458.371	4915.47
458.561	5026.06
458.751	4067.61
458.941	3819.8
459.131	4851.98
459.321	4542.74
459.511	3881.24
459.701	3807.52
459.891	4669.71
460.081	4157.72
460.271	3741.98
460.461	3576.09
460.651	5255.43
460.841	5013.77
461.032	3666.21
461.222	3842.33
461.412	4301.08
461.602	5300.48
461.792	3414.31
461.983	3363.11
462.173	4575.5
462.363	5013.77
462.554	3438.88
462.744	3492.13
462.934	4667.66
463.125	4354.32
463.315	3221.8
463.505	3715.36
463.696	4571.41
463.886	4047.13
464.077	3236.13
464.267	3305.76
464.458	4696.33
464.648	3862.81
464.839	3543.33
465.03	3270.95
465.22	3739.93
465.411	4313.36
465.601	3219.75
465.792	3125.54
465.983	4016.41
466.174	4276.5
466.364	2939.18
466.555	3254.56
466.746	4288.79
466.937	3871
467.128	3213.6
467.319	3082.53
467.51	4303.12
467.701	4911.37
467.891	3127.59
468.082	3096.87
468.274	4018.46
468.465	3363.11
468.656	3309.86
468.847	2953.51
469.038	3526.94
469.229	3711.26
469.42	3221.8
469.612	3000.62
469.803	4024.6
469.994	4016.41
470.185	3031.34
470.377	3002.66
470.568	3891.48
470.76	3920.15
470.951	3107.11
471.142	3234.08
471.334	4145.43
471.526	3911.96
471.717	3162.41
471.909	2775.34
472.1	3666.21
472.292	3838.23
472.484	2695.47
472.675	2896.17
472.867	3731.74
473.059	4395.28
473.251	3017
473.443	2912.55
473.635	3789.08
473.826	4004.12
474.018	2849.07
474.21	2980.14
474.402	3871
474.595	4346.13
474.787	2840.87
474.979	3150.12
475.171	3625.25
475.363	3172.64
475.555	2685.23
475.748	2969.9
475.94	3907.87
476.132	3592.48
476.325	2812.2
476.517	3408.16
476.71	4610.32
476.902	3492.13
477.095	2922.79
477.287	3178.79
477.48	4043.03
477.673	3778.84
477.865	3014.95
478.058	2851.11
478.251	4012.31
478.444	4288.79
478.636	3078.44
478.829	2840.87
479.022	3856.67
479.215	3977.5
479.408	3232.04
479.601	3553.57
479.794	3758.36
479.988	3473.7
480.181	3232.04
480.374	3035.43
480.567	3901.72
480.76	4542.74
480.954	2969.9
481.147	2758.96
481.341	3565.85
481.534	3672.35
481.728	3047.72
481.921	3305.76
482.115	3969.3
482.308	4313.36
482.502	2816.3
482.696	2965.8
482.89	4516.11
483.084	4034.84
483.277	2980.14
483.471	3141.93
483.665	4088.09
483.859	4811.02
484.053	2625.84
484.247	2732.33
484.442	3684.64
484.636	3682.59
484.83	2830.63
485.024	3143.97
485.219	3868.95
485.413	3539.23
485.608	2855.21
485.802	3082.53
485.997	4100.37
486.191	3678.49
486.386	2744.62
486.58	3135.78
486.775	3797.28
486.97	4086.04
487.165	2953.51
487.36	3060.01
487.555	3787.04
487.75	3508.51
487.945	3158.31
488.14	2654.51
488.335	3424.55
488.53	3447.07
488.725	2734.38
488.92	3060.01
489.116	4192.53
489.311	3875.1
489.507	2625.84
489.702	3309.86
489.898	4135.19
490.093	3371.3
490.289	3195.17
490.485	2822.44
490.68	3258.66
490.876	4270.36
491.072	2662.7
491.268	2955.56
491.464	4036.89
491.66	3817.76
491.856	2949.42
492.052	3283.24
492.248	3989.78
492.445	3637.53
492.641	2707.76
492.837	2734.38
493.034	4077.85
493.23	4112.66
493.427	3127.59
493.623	2713.9
493.82	3635.49
494.017	4047.13
494.214	2677.04
494.41	2500.91
494.607	3891.48
494.804	3363.11
495.001	2810.15
495.198	2863.4
495.395	3883.29
495.593	3817.76
495.79	2605.36
495.987	2531.63
496.184	2978.09
496.382	3643.68
496.579	2576.69
496.777	2543.92
496.974	4176.15
497.172	3574.05
497.37	2552.11
497.568	2408.75
497.766	4223.25
497.963	3406.11
498.161	2617.65
498.359	2662.7
498.558	3930.39
498.756	3701.02
498.954	2373.94
499.152	2842.92
499.351	3567.9
499.549	3422.5
499.747	2588.97
499.946	2521.39
500.145	3324.19
500.343	3260.71
500.542	2388.27
500.741	2355.51
500.94	3498.27
501.139	3711.26
501.338	2437.42
501.537	2672.94
501.736	3891.48
501.935	3477.79
502.134	2310.45
502.334	2457.9
502.533	3682.59
502.733	3399.97
502.932	2437.42
503.132	2486.58
503.331	3223.84
503.531	3635.49
503.731	2441.52
503.931	2294.07
504.131	3035.43
504.331	3543.33
504.531	2482.48
504.731	2339.12
504.931	3146.02
505.132	3113.25
505.332	2332.98
505.532	2326.83
505.733	3524.9
505.933	3789.08
506.134	2447.66
506.335	2052.41
506.536	2969.9
506.736	3469.6
506.937	2152.76
507.138	2076.98
507.34	3887.39
507.541	3219.75
507.742	2511.15
507.943	2144.56
508.145	3150.12
508.346	2523.44
508.548	1913.14
508.749	2076.98
508.951	2623.79
509.153	2883.88
509.354	2326.83
509.556	2298.16
509.758	3199.27
509.96	2715.95
510.163	2326.83
510.365	2218.29
510.567	2728.24
510.769	2797.87
510.972	2079.03
511.174	2478.38
511.377	2595.12
511.58	3922.2
511.782	2009.4
511.985	2167.09
512.188	3494.18
512.391	3094.82
512.594	1904.95
512.797	2076.98
513.001	3270.95
513.204	3666.21
513.407	2228.53
513.611	2087.22
513.814	3027.24
514.018	3320.1
514.222	2089.27
514.425	2019.64
514.629	2996.52
514.833	2973.99
515.037	2236.72
515.241	1956.15
515.445	2609.45
515.65	2726.19
515.854	2060.6
516.059	2079.03
516.263	3133.73
516.468	3047.72
516.672	2027.83
516.877	2009.4
517.082	2363.7
517.287	2969.9
517.492	2199.86
517.697	1986.87
517.902	2920.74
518.107	2670.89
518.313	2025.78
518.518	2031.93
518.724	3479.84
518.929	2994.47
519.135	2144.56
519.341	1691.96
519.547	2916.65
519.753	3019.05
519.959	1823.03
520.165	1913.14
520.371	2883.88
520.577	3461.41
520.784	1773.88
520.99	2195.76
521.197	2902.31
521.404	2902.31
521.61	1659.2
521.817	1726.78
522.024	3316
522.231	2695.47
522.438	1513.79
522.645	2283.83
522.853	2597.17
523.06	2961.7
523.268	1937.72
523.475	1974.58
523.683	2875.69
523.891	2984.23
524.098	1487.17
524.306	2128.18
524.514	2834.73
524.722	2722.09
524.931	2044.21
525.139	1818.94
525.347	2146.61
525.556	2603.31
525.764	1904.95
525.973	2097.46
526.182	2877.74
526.391	2507.06
526.6	1755.45
526.809	1792.31
527.018	2527.53
527.227	2818.35
527.436	1866.04
527.646	1876.28
527.855	2900.27
528.065	2617.65
528.275	1763.64
528.484	1737.02
528.694	3047.72
528.904	2736.43
529.114	1800.51
529.325	1775.93
529.535	2193.72
529.745	2761
529.956	1745.21
530.166	1780.03
530.377	2715.95
530.588	3160.36
530.799	2052.41
531.01	1722.68
531.221	3010.86
531.432	3076.39
531.643	1874.23
531.855	2277.68
532.066	3012.9
532.278	2674.99
532.489	1823.03
532.701	1694.01
532.913	2959.66
533.125	2789.67
533.337	1503.55
533.549	1716.54
533.762	2894.12
533.974	2199.86
534.186	1544.51
534.399	1802.55
534.612	2900.27
534.825	2640.17
535.037	1823.03
535.25	1855.8
535.464	2330.93
535.677	3100.97
535.89	1567.04
536.104	1935.67
536.317	2556.21
536.531	2486.58
536.744	1937.72
536.958	1759.55
537.172	2617.65
537.386	2562.35
537.6	1757.5
537.815	1638.72
538.029	2914.6
538.244	2859.31
538.458	1462.59
538.673	1648.96
538.888	2863.4
539.103	3205.41
539.318	1993.01
539.533	1644.86
539.748	2554.16
539.963	2396.46
540.179	1409.34
540.394	1399.1
540.61	2042.17
540.826	2375.99
541.042	1548.61
541.258	1470.78
541.474	3047.72
541.69	2486.58
541.906	1698.11
542.123	1622.33
542.339	2554.16
542.556	2076.98
542.773	1552.7
542.99	1689.92
543.207	2380.08
543.424	2289.97
543.641	1792.31
543.858	1919.29
544.076	2289.97
544.293	2193.72
544.511	1501.5
544.729	1536.32
544.947	2365.75
545.165	2384.18
545.383	1454.4
545.601	1562.94
545.819	2486.58
546.038	2249.01
546.256	1773.88
546.475	1478.97
