Data from led_USB4H112691__8__11-29-14-538.txt Node

Date: Tue Dec 17 11:29:14 CET 2024
User: Etudiants TP
Spectrometer: USB4H11269
Trigger mode: 4
Integration Time (sec): 1.000000E0
Scans to average: 1
Electric dark correction enabled: true
Nonlinearity correction enabled: false
Boxcar width: 0
XAxis mode: Wavelengths
Number of Pixels in Spectrum: 3648
>>>>>Begin Spectral Data<<<<<
286.377	-1584.79
286.631	-1584.79
286.884	-1584.79
287.138	-1631.89
287.391	-1691.28
287.644	-833.18
287.896	-499.36
288.149	702.79
288.401	362.83
288.653	-487.08
288.905	-405.16
289.157	872.78
289.409	221.52
289.661	-415.4
289.912	-751.26
290.163	473.42
290.414	758.09
290.665	-706.21
290.916	-538.27
291.166	444.75
291.417	1026.37
291.667	-593.57
291.917	-214.7
292.167	522.57
292.417	350.54
292.666	-652.96
292.916	-595.62
293.165	430.41
293.414	643.4
293.663	-927.39
293.912	-786.08
294.16	805.19
294.408	719.18
294.657	-788.13
294.905	-358.05
295.153	592.2
295.4	551.24
295.648	-757.41
295.895	-741.02
296.143	-46.76
296.39	747.85
296.637	-638.62
296.884	-726.69
297.13	538.96
297.377	778.57
297.623	-554.66
297.869	-267.94
298.115	622.92
298.361	706.89
298.606	-732.83
298.852	-607.91
299.097	328.02
299.342	913.74
299.587	-347.81
299.832	-564.9
300.077	684.36
300.322	534.86
300.566	-702.11
300.81	-431.78
301.054	446.8
301.298	782.67
301.542	-175.78
301.785	-300.71
302.029	919.88
302.272	606.54
302.515	-757.41
302.758	-622.24
303.001	762.19
303.244	682.31
303.486	-591.52
303.729	-847.52
303.971	966.98
304.213	772.43
304.455	-812.7
304.696	-390.82
304.938	268.63
305.179	682.31
305.421	-462.5
305.662	-468.64
305.903	305.49
306.143	330.06
306.384	-333.48
306.625	-538.27
306.865	428.37
307.105	168.27
307.345	-493.22
307.585	-554.66
307.825	2.39
308.064	706.89
308.304	-597.67
308.543	-861.85
308.782	495.95
309.021	743.75
309.26	-374.44
309.499	-480.93
309.737	923.98
309.976	780.62
310.214	-763.55
310.452	-616.1
310.69	1108.29
310.928	125.27
311.165	-614.05
311.403	-589.47
311.64	895.3
311.878	563.53
312.115	-519.84
312.351	-532.13
312.588	334.16
312.825	948.55
313.061	-693.92
313.298	-30.38
313.534	278.87
313.77	833.86
314.006	-636.58
314.241	-591.52
314.477	641.36
314.713	1091.91
314.948	-532.13
315.183	166.23
315.418	784.71
315.653	502.09
315.888	-710.3
316.122	-446.12
316.357	295.25
316.591	936.26
316.825	-542.37
317.059	-542.37
317.293	919.88
317.527	366.93
317.76	-579.23
317.994	-429.73
318.227	651.6
318.46	979.27
318.693	-661.15
318.926	-480.93
319.159	41.3
319.391	547.15
319.624	-751.26
319.856	-493.22
320.088	690.51
320.321	645.45
320.552	-345.77
320.784	-626.34
321.016	745.8
321.247	-13.99
321.479	-386.72
321.71	-333.48
321.941	-165.54
322.172	1128.77
322.403	-644.77
322.633	-382.63
322.864	831.82
323.094	178.51
323.325	-32.43
323.555	-532.13
323.785	98.64
324.014	231.76
324.244	-489.12
324.474	-300.71
324.703	928.07
324.933	725.32
325.162	-429.73
325.391	-816.8
325.62	-132.78
325.848	878.92
326.077	-560.8
326.306	-378.53
326.534	717.13
326.762	1007.94
326.99	-644.77
327.218	-284.33
327.446	831.82
327.674	22.87
327.901	-648.86
328.129	-618.15
328.356	715.08
328.583	133.46
328.81	-644.77
329.037	-415.4
329.264	356.69
329.491	799.05
329.717	-452.26
329.944	-681.63
330.17	411.98
330.396	78.16
330.622	-722.59
330.848	-448.16
331.074	391.5
331.299	1370.43
331.525	-671.39
331.75	-552.61
331.975	928.07
332.201	182.61
332.426	-929.44
332.65	-652.96
332.875	-210.6
333.1	461.13
333.324	-724.64
333.549	-644.77
333.773	289.1
333.997	411.98
334.221	-493.22
334.445	-579.23
334.668	600.4
334.892	1091.91
335.116	-329.38
335.339	-601.76
335.562	-67.24
335.785	366.93
336.008	-331.43
336.231	-587.43
336.454	-136.87
336.676	969.03
336.899	-538.27
337.121	-364.2
337.343	-1.71
337.566	586.06
337.788	-509.6
338.009	-689.82
338.231	-26.28
338.453	389.46
338.674	3066.15
338.896	-466.6
339.117	-42.67
339.338	977.22
339.559	-636.58
339.78	-505.51
340.001	-26.28
340.222	823.62
340.442	-644.77
340.663	-249.51
340.883	620.88
341.103	332.11
341.323	-579.23
341.543	-392.87
341.763	934.22
341.983	244.05
342.202	-695.97
342.422	-669.34
342.641	1134.92
342.861	387.41
343.08	-95.91
343.299	-726.69
343.518	616.78
343.736	624.97
343.955	-667.3
344.174	-657.06
344.392	743.75
344.61	131.41
344.829	-691.87
345.047	-577.19
345.265	569.68
345.483	799.05
345.7	-644.77
345.918	-183.98
346.136	55.64
346.353	790.86
346.57	-634.53
346.788	-757.41
347.005	334.16
347.222	-9.9
347.438	-145.06
347.655	-493.22
347.872	20.82
348.088	1057.09
348.305	-308.9
348.521	-558.75
348.737	84.31
348.953	977.22
349.169	-173.74
349.385	-456.36
349.601	389.46
349.817	-108.2
350.032	-110.25
350.248	-349.86
350.463	1124.68
350.678	-329.38
350.893	-634.53
351.108	-657.06
351.323	112.98
351.538	723.27
351.753	-657.06
351.967	-669.34
352.182	684.36
352.396	170.32
352.61	-644.77
352.824	-554.66
353.038	477.52
353.252	817.48
353.466	-427.68
353.68	-566.95
353.894	397.65
354.107	129.36
354.32	-439.97
354.534	-607.91
354.747	575.82
354.96	-77.48
355.173	-390.82
355.386	-714.4
355.599	469.33
355.811	184.66
356.024	-636.58
356.236	-431.78
356.449	258.39
356.661	215.38
356.873	-749.22
357.085	-784.03
357.297	620.88
357.509	596.3
357.721	-446.12
357.933	-534.18
358.144	217.43
358.356	158.03
358.567	-323.24
358.778	-683.68
358.989	915.78
359.2	115.03
359.411	-509.6
359.622	-341.67
359.833	407.89
360.044	297.3
360.254	-507.55
360.465	-706.21
360.675	360.78
360.885	489.81
361.096	-743.07
361.306	-454.31
361.516	186.71
361.726	518.48
361.935	-784.03
362.145	-530.08
362.355	452.94
362.564	428.37
362.774	-720.54
362.983	-790.17
363.192	821.58
363.401	112.98
363.61	-661.15
363.819	-325.29
364.028	276.82
364.237	940.36
364.445	-571.04
364.654	-345.77
364.862	321.87
365.071	252.24
365.279	-485.03
365.487	-642.72
365.695	575.82
365.903	366.93
366.111	-595.62
366.319	-513.7
366.527	600.4
366.734	190.8
366.942	-396.96
367.149	-679.58
367.357	-603.81
367.564	1018.18
367.771	-525.99
367.978	-616.1
368.185	100.69
368.392	227.67
368.599	-292.52
368.806	-519.84
369.013	-122.54
369.219	346.45
369.426	-824.99
369.632	-274.09
369.838	1186.12
370.044	604.49
370.251	-515.75
370.457	-540.32
370.663	827.72
370.868	338.26
371.074	-560.8
371.28	-616.1
371.485	-136.87
371.691	727.37
371.896	-650.91
372.102	-685.73
372.307	1106.24
372.512	772.43
372.717	-732.83
372.922	-153.26
373.127	26.96
373.332	360.78
373.537	-456.36
373.741	-583.33
373.946	452.94
374.151	289.1
374.355	-765.6
374.559	-511.65
374.764	102.74
374.968	-423.59
375.172	-546.47
375.376	-235.18
375.58	495.95
375.784	-50.86
375.987	-616.1
376.191	-466.6
376.395	123.22
376.598	141.65
376.802	-726.69
377.005	-374.44
377.208	149.84
377.412	96.6
377.615	-849.57
377.818	-702.11
378.021	147.8
378.224	-71.34
378.426	-513.7
378.629	-800.41
378.832	698.7
379.034	545.1
379.237	-833.18
379.439	-820.89
379.642	678.22
379.844	485.71
380.046	-847.52
380.248	-724.64
380.45	-153.26
380.652	-120.49
380.854	-476.84
381.056	-624.29
381.258	192.85
381.459	452.94
381.661	-712.35
381.862	-341.67
382.064	-75.43
382.265	190.8
382.467	-644.77
382.668	-489.12
382.869	661.84
383.07	420.17
383.271	-478.88
383.472	-618.15
383.673	682.31
383.874	407.89
384.074	-495.27
384.275	-691.87
384.476	553.29
384.676	1081.67
384.876	-759.46
385.077	-587.43
385.277	700.75
385.477	864.58
385.677	-652.96
385.878	-368.29
386.078	201.04
386.278	205.14
386.477	-235.18
386.677	-202.41
386.877	543.05
387.077	715.08
387.276	-366.25
387.476	-487.08
387.675	215.38
387.875	774.47
388.074	-710.3
388.273	-472.74
388.472	862.54
388.671	-177.83
388.87	-646.82
389.069	-212.65
389.268	-239.27
389.467	2.39
389.666	-773.79
389.865	-304.81
390.063	489.81
390.262	670.03
390.461	-573.09
390.659	-644.77
390.857	616.78
391.056	704.84
391.254	-636.58
391.452	-612
391.65	780.62
391.849	538.96
392.047	-386.72
392.245	-286.37
392.442	248.15
392.64	551.24
392.838	-235.18
393.036	-444.07
393.233	258.39
393.431	289.1
393.629	-808.61
393.826	-501.41
394.023	348.5
394.221	-206.5
394.418	-396.96
394.615	-206.5
394.812	-122.54
395.01	698.7
395.207	-612
395.404	-607.91
395.601	870.73
395.797	385.36
395.994	-714.4
396.191	-478.88
396.388	198.99
396.584	600.4
396.781	-335.53
396.977	72.02
397.174	637.26
397.37	2.39
397.567	-413.35
397.763	-618.15
397.959	325.97
398.155	352.59
398.352	-429.73
398.548	-218.79
398.744	493.9
398.94	397.65
399.136	-775.84
399.331	-290.47
399.527	291.15
399.723	323.92
399.919	-333.48
400.114	-472.74
400.31	178.51
400.505	565.58
400.701	-433.83
400.896	-585.38
401.092	182.61
401.287	450.89
401.482	-636.58
401.678	-370.34
401.873	653.64
402.068	692.55
402.263	-419.49
402.458	-489.12
402.653	110.93
402.848	563.53
403.043	-431.78
403.237	-591.52
403.432	100.69
403.627	-235.18
403.822	-757.41
404.016	-497.32
404.211	137.56
404.405	674.12
404.6	-183.98
404.794	-267.94
404.989	584.01
405.183	145.75
405.377	-186.02
405.571	-112.3
405.766	524.62
405.96	264.53
406.154	-466.6
406.348	-370.34
406.542	551.24
406.736	522.57
406.93	-554.66
407.124	-317.09
407.318	315.73
407.511	448.85
407.705	-247.46
407.899	-523.94
408.092	571.72
408.286	395.6
408.48	-575.14
408.673	-521.89
408.867	26.96
409.06	440.65
409.253	-265.89
409.447	-339.62
409.64	735.56
409.833	561.48
410.026	-317.09
410.22	-259.75
410.413	749.9
410.606	495.95
410.799	-616.1
410.992	-362.15
411.185	317.78
411.378	1036.61
411.571	-304.81
411.764	-333.48
411.956	764.23
412.149	579.92
412.342	-46.76
412.534	-218.79
412.727	702.79
412.92	526.67
413.112	-288.42
413.305	-69.29
413.497	977.22
413.69	784.71
413.882	-226.98
414.075	-65.19
414.267	637.26
414.459	500.05
414.652	-390.82
414.844	-325.29
415.036	629.07
415.228	897.35
415.42	59.73
415.612	-243.37
415.804	1009.99
415.997	743.75
416.188	-1.71
416.38	-79.53
416.572	309.58
416.764	903.5
416.956	-315.05
417.148	-179.88
417.34	522.57
417.531	168.27
417.723	-210.6
417.915	-132.78
418.107	375.12
418.298	731.47
418.49	-77.48
418.681	-11.95
418.873	1067.33
419.064	817.48
419.256	-7.85
419.447	-145.06
419.639	848.2
419.83	1255.75
420.021	94.55
420.213	0.34
420.404	745.8
420.595	813.38
420.786	104.79
420.978	158.03
421.169	981.32
421.36	682.31
421.551	51.54
421.742	-61.1
421.933	1339.71
422.124	1028.42
422.315	170.32
422.506	76.12
422.697	1087.81
422.888	751.95
423.079	438.61
423.27	139.6
423.461	897.35
423.652	764.23
423.842	29.01
424.033	305.49
424.224	1204.55
424.415	1618.24
424.605	325.97
424.796	258.39
424.987	1204.55
425.177	1153.35
425.368	80.21
425.558	78.16
425.749	981.32
425.939	993.61
426.13	698.7
426.32	543.05
426.511	934.22
426.701	1014.09
426.892	434.51
427.082	407.89
427.272	1030.47
427.463	1325.38
427.653	543.05
427.843	727.37
428.034	1919.29
428.224	1581.37
428.414	323.92
428.604	727.37
428.795	1640.76
428.985	1743.16
429.175	1009.99
429.365	938.31
429.555	1632.57
429.745	1747.26
429.935	821.58
430.126	1048.9
430.316	1829.18
430.506	1978.68
430.696	1044.81
430.886	1186.12
431.076	1988.92
431.266	1806.65
431.456	1415.49
431.645	1136.96
431.835	1775.93
432.025	2074.93
432.215	1020.23
432.405	1528.13
432.595	2134.32
432.785	2060.6
432.975	1395.01
433.164	1208.64
433.354	1902.9
433.544	2396.46
433.734	1374.53
433.923	1759.55
434.113	2240.82
434.303	2486.58
434.493	1835.32
434.682	1755.45
434.872	2867.5
435.062	2359.6
435.251	2005.3
435.441	1880.38
435.631	3064.1
435.82	2953.51
436.01	2038.07
436.2	2179.38
436.389	2812.2
436.579	3496.22
436.768	2705.71
436.958	2801.96
437.147	3139.88
437.337	3547.42
437.527	2726.19
437.716	2574.64
437.906	3844.38
438.095	3373.35
438.285	3000.62
438.474	3115.3
438.664	4135.19
438.853	4094.23
439.043	3340.58
439.232	3041.57
439.422	4120.85
439.611	4245.78
439.8	3346.72
439.99	3928.35
440.179	4753.68
440.369	4720.91
440.558	3481.89
440.748	3942.68
440.937	4614.41
441.126	4608.27
441.316	4286.74
441.505	4327.7
441.695	5277.96
441.884	5794.04
442.073	4573.46
442.263	4294.93
442.452	5263.62
442.642	5703.93
442.831	4747.53
443.02	5308.68
443.21	6353.14
443.399	6846.7
443.588	5378.31
443.778	5566.72
443.967	6740.21
444.156	6502.64
444.346	5507.33
444.535	5665.02
444.725	7112.94
444.914	6519.03
445.103	5908.73
445.293	6129.91
445.482	7258.34
445.671	7155.94
445.861	6469.87
446.05	6539.51
446.239	7379.17
446.429	7076.07
446.618	6451.44
446.807	6584.56
446.997	7692.51
447.186	7678.18
447.376	6883.56
447.565	7051.5
447.754	8120.54
447.944	7950.56
448.133	6803.69
448.322	6654.19
448.512	7784.67
448.701	8186.07
448.891	6863.08
449.08	7055.59
449.269	7330.02
449.459	7518.43
449.648	6785.26
449.838	6856.94
450.027	7358.69
450.217	7565.54
450.406	6592.75
450.595	7108.84
450.785	7753.95
450.974	7704.8
451.164	6945
451.353	6721.77
451.543	7663.84
451.732	8265.94
451.922	6588.66
452.111	6639.86
452.301	7278.82
452.49	6924.52
452.68	6281.46
452.869	7176.42
453.059	7151.85
453.249	7766.24
453.438	6230.26
453.628	6578.42
453.817	7342.31
454.007	7313.64
454.197	6095.1
454.386	6326.52
454.576	7547.11
454.765	7248.1
454.955	6482.16
455.145	6416.63
455.334	7010.54
455.524	6705.39
455.714	6490.35
455.904	6158.58
456.093	7598.31
456.283	7157.99
456.473	6076.66
456.663	6148.34
456.852	6916.33
457.042	6920.43
457.232	6125.82
457.422	6662.38
457.612	6740.21
457.802	7416.04
457.991	5591.3
458.181	5957.88
458.371	6906.09
458.561	6924.52
458.751	6170.87
458.941	6011.13
459.131	6732.01
459.321	6422.77
459.511	5998.84
459.701	5923.07
459.891	6557.94
460.081	6514.93
460.271	5781.76
460.461	5636.35
460.651	7266.53
460.841	7356.65
461.032	5777.66
461.222	5945.59
461.412	6490.35
461.602	7690.46
461.792	5628.16
461.983	5808.38
462.173	6832.37
462.363	7473.38
462.554	5886.2
462.744	5730.56
462.934	7088.36
463.125	6701.3
463.315	5755.13
463.505	5959.93
463.696	6867.18
463.886	6484.21
464.077	5728.51
464.267	5683.45
464.458	7194.86
464.648	6217.97
464.839	6015.23
465.03	5912.83
465.22	6359.28
465.411	6867.18
465.601	5701.89
465.792	5726.46
465.983	6492.4
466.174	6856.94
466.364	5509.38
466.555	5687.55
466.746	6871.28
466.937	6441.2
467.128	5785.85
467.319	5832.96
467.51	7026.92
467.701	7446.76
467.891	5894.4
468.082	5562.62
468.274	6529.27
468.465	6142.2
468.656	6047.99
468.847	5697.79
469.038	6428.92
469.229	6803.69
469.42	5896.44
469.612	5597.44
469.803	6959.34
469.994	6887.66
470.185	5937.4
470.377	5728.51
470.568	6818.03
470.76	6924.52
470.951	5988.6
471.142	6107.38
471.334	7047.4
471.526	6883.56
471.717	6441.2
471.909	5955.83
472.1	6875.37
472.292	6899.95
472.484	5964.03
472.675	6103.29
472.867	7082.22
473.059	7629.02
473.251	6252.79
473.443	6131.96
473.635	7196.9
473.826	7397.6
474.018	6209.78
474.21	6568.18
474.402	7416.04
474.595	7741.66
474.787	6668.53
474.979	6572.27
475.171	7153.9
475.363	6945
475.555	6269.17
475.748	6674.67
475.94	7786.72
476.132	7457
476.325	6629.62
476.517	7227.62
476.71	8284.37
476.902	7377.12
477.095	6906.09
477.287	7311.59
477.48	8136.92
477.673	7944.41
477.865	7221.48
478.058	7022.83
478.251	8171.74
478.444	8452.31
478.636	7301.35
478.829	7084.27
479.022	8128.73
479.215	8466.64
479.408	7592.16
479.601	8073.43
479.794	8224.98
479.988	8063.19
480.181	7749.86
480.374	7624.93
480.567	8401.11
480.76	9160.91
480.954	7823.58
481.147	7391.46
481.341	8440.02
481.534	8489.17
481.728	8065.24
481.921	8147.16
482.115	9099.47
482.308	9326.79
482.502	7880.93
482.696	8110.3
482.89	9636.03
483.084	9091.27
483.277	8128.73
483.471	8345.81
483.665	9418.95
483.859	10119.35
484.053	8063.19
484.247	8235.22
484.442	9162.95
484.636	9115.85
484.83	8263.9
485.024	8589.52
485.219	9273.54
485.413	9064.65
485.608	8630.48
485.802	8816.85
485.997	10029.24
486.191	9464
486.386	8476.88
486.58	8794.32
486.775	9720
486.97	10086.59
487.165	8681.68
487.36	9087.18
487.555	10074.3
487.75	9652.42
487.945	9091.27
488.14	9005.26
488.335	9736.38
488.53	9707.71
488.725	8851.66
488.92	9234.63
489.116	10401.97
489.311	9992.38
489.507	9005.26
489.702	9636.03
489.898	10485.94
490.093	10025.15
490.289	9791.68
490.485	9435.33
490.68	9613.51
490.876	11014.32
491.072	9347.27
491.268	9595.07
491.464	10758.32
491.66	10502.33
491.856	9570.5
492.052	9869.5
492.248	10508.47
492.445	10682.55
492.641	9423.05
492.837	9693.38
493.034	10954.93
493.23	11102.38
493.427	10012.86
493.623	9828.54
493.82	10840.24
494.017	11401.38
494.214	9816.26
494.41	9668.8
494.607	10889.39
494.804	10340.54
495.001	10115.26
495.198	9914.56
495.395	11237.55
495.593	11110.57
495.79	9863.36
495.987	9889.98
496.184	10346.68
496.382	10965.17
496.579	9910.46
496.777	10057.92
496.974	11522.21
497.172	11198.63
497.37	10004.67
497.568	9912.51
497.766	11720.87
497.963	10889.39
498.161	9980.09
498.359	10229.95
498.558	11561.12
498.756	11393.19
498.954	10037.44
499.152	10465.46
499.351	11212.97
499.549	11225.26
499.747	10258.62
499.946	10129.59
500.145	10993.84
500.343	10897.58
500.542	10180.79
500.741	10246.33
500.94	11452.58
501.139	11442.34
501.338	10066.11
501.537	10475.7
501.736	11835.55
501.935	11081.9
502.134	10154.17
502.334	10291.38
502.533	11473.06
502.733	11393.19
502.932	10451.13
503.132	10219.71
503.331	11176.11
503.531	11608.23
503.731	10168.51
503.931	10252.47
504.131	10905.77
504.331	11569.32
504.531	10275
504.731	10451.13
504.931	11014.32
505.132	11552.93
505.332	10025.15
505.532	10293.43
505.733	11290.79
505.933	11700.39
506.134	10223.8
506.335	10086.59
506.536	10727.6
506.736	11464.87
506.937	10066.11
507.138	10203.32
507.34	11995.29
507.541	11073.71
507.742	10567.86
507.943	10070.2
508.145	11088.04
508.346	10655.92
508.548	10064.06
508.749	9984.19
508.951	10719.41
509.153	10971.31
509.354	10111.16
509.556	10203.32
509.758	11192.49
509.96	10907.82
510.163	10377.4
510.365	10279.1
510.567	10766.51
510.769	10875.06
510.972	9889.98
511.174	10647.73
511.377	10688.69
511.58	11901.09
511.782	10059.96
511.985	10072.25
512.188	11616.42
512.391	11231.4
512.594	9801.92
512.797	10070.2
513.001	11428.01
513.204	11653.28
513.407	10090.68
513.611	10059.96
513.814	11204.78
514.018	11309.22
514.222	9849.02
514.425	9957.57
514.629	11151.53
514.833	10672.31
515.037	10023.1
515.241	9642.18
515.445	10655.92
515.65	10361.02
515.854	9937.09
516.059	9955.52
516.263	11131.05
516.468	10809.52
516.672	9877.69
516.877	9916.61
517.082	10315.96
517.287	10606.77
517.492	9877.69
517.697	9752.77
517.902	10717.36
518.107	10201.27
518.313	9816.26
518.518	9664.71
518.724	10987.69
518.929	10461.37
519.135	9898.17
519.341	9361.61
519.547	10547.38
519.753	10479.8
519.959	9838.78
520.165	9498.82
520.371	10520.76
520.577	10928.3
520.784	9089.23
520.99	9580.74
521.197	10358.97
521.404	10369.21
521.61	9119.95
521.817	9167.05
522.024	10553.52
522.231	10008.76
522.438	8775.89
522.645	9752.77
522.853	9900.22
523.06	10422.45
523.268	9283.78
523.475	9244.87
523.683	10111.16
523.891	10223.8
524.098	8777.94
524.306	9058.51
524.514	10156.22
524.722	10006.72
524.931	8882.38
525.139	8884.43
525.347	9367.75
525.556	9742.53
525.764	9175.24
525.973	9081.03
526.182	9820.35
526.391	9435.33
526.6	8835.28
526.809	8718.54
527.018	9494.72
527.227	9730.24
527.436	8603.86
527.646	8601.81
527.855	9646.27
528.065	9212.1
528.275	8532.18
528.484	8227.03
528.694	9558.21
528.904	9369.8
529.114	8358.1
529.325	8526.04
529.535	8712.4
529.745	9636.03
529.956	8167.64
530.166	8169.69
530.377	9265.35
530.588	9734.34
530.799	8354.01
531.01	8012
531.221	9373.89
531.432	9316.55
531.643	8003.8
531.855	8427.73
532.066	9029.84
532.278	8896.72
532.489	7981.28
532.701	7706.85
532.913	9238.73
533.125	8894.67
533.337	7678.18
533.549	7753.95
533.762	8931.53
533.974	8024.28
534.186	7260.39
534.399	7614.69
534.612	8980.68
534.825	8503.51
535.037	7620.83
535.25	7715.04
535.464	8192.22
535.677	8814.8
535.89	7350.5
536.104	7655.65
536.317	8124.63
536.531	8194.26
536.744	7678.18
536.958	7291.11
537.172	8204.5
537.386	7743.71
537.6	7239.91
537.815	7108.84
538.029	8280.28
538.244	8296.66
538.458	6975.72
538.673	6936.81
538.888	8110.3
539.103	8423.64
539.318	7100.65
539.533	6775.02
539.748	7819.49
539.963	7526.63
540.179	6752.49
540.394	6697.2
540.61	7129.32
540.826	7487.72
541.042	6510.83
541.258	6691.06
541.474	8239.32
541.69	7680.22
541.906	6869.23
542.123	6547.7
542.339	7610.59
542.556	7192.81
542.773	6498.55
542.99	6588.66
543.207	7309.54
543.424	7074.03
543.641	6328.56
543.858	6691.06
544.076	6922.48
544.293	6754.54
544.511	6183.16
544.729	6236.41
544.947	6945
